# sky background 0.3-1.0um
# BRIGHT optical sky - 100%ile conditions (day 14)
#AM=1.0
#
#derived from sky spectrum with constant slope to match assumed photometric background
#increasingly poor model at very bright sky (day14);  patched to near-IR background at 920nm
#
#1 March 2001 : Phil Puxley

#nm         phot/s/nm/arcsec^2/m^2
320.00                    0.0000
349.99                    0.0000
350.17                   16.3580
350.43                   16.3513
350.70                   16.3446
350.96                   16.3379
351.23                   16.3312
351.49                   16.3245
351.76                   16.3178
352.02                   16.3111
352.29                   16.3044
352.55                   16.2977
352.82                   16.2910
353.08                   16.2843
353.35                   16.2776
353.62                   16.2709
353.88                   16.2642
354.15                   16.2575
354.41                   16.2508
354.68                   16.2440
354.94                   16.2373
355.21                   16.2306
355.47                   16.2239
355.74                   16.2172
356.00                   16.2105
356.27                   16.2038
356.53                   16.1971
356.80                   16.1904
357.07                   16.1837
357.33                   16.1770
357.60                   16.1703
357.86                   16.1636
358.13                   16.1569
358.39                   16.1502
358.66                   16.1435
358.92                   16.1368
359.19                   16.1301
359.45                   16.1233
359.72                   16.1166
359.98                   16.1099
360.25                   16.1032
360.51                   16.0965
360.78                   16.0898
361.05                   16.0831
361.31                   16.0764
361.58                   16.0697
361.84                   16.0630
362.11                   16.0563
362.37                   16.0496
362.64                   16.0429
362.90                   16.0362
363.17                   16.0295
363.43                   16.0228
363.70                   16.0161
363.96                   16.0093
364.23                   16.0026
364.49                   15.9959
364.76                   15.9892
365.03                   15.9825
365.29                   15.9758
365.56                   15.9691
365.82                   15.9624
366.09                   15.9557
366.35                   15.9490
366.62                   15.9423
366.88                   15.9356
367.15                   15.9289
367.41                   15.9222
367.68                   15.9155
367.94                   15.9088
368.21                   15.9021
368.47                   15.8953
368.74                   15.8886
369.01                   15.8819
369.27                   15.8752
369.54                   15.8685
369.80                   15.8618
370.07                   15.8551
370.33                   15.8484
370.60                   15.8417
370.86                   15.8350
371.13                   15.8283
371.39                   15.8216
371.66                   15.8149
371.92                   15.8082
372.19                   15.8015
372.45                   15.7948
372.72                   15.7881
372.99                   15.7813
373.25                   15.7746
373.52                   15.7679
373.78                   15.7612
374.05                   15.7545
374.31                   15.7478
374.58                   15.7411
374.84                   15.7344
375.11                   15.7277
375.37                   15.7210
375.64                   15.7143
375.90                   15.7076
376.17                   15.7009
376.43                   15.6942
376.70                   15.6875
376.97                   15.6808
377.23                   15.6741
377.50                   15.6674
377.76                   15.6606
378.03                   15.6539
378.29                   15.6472
378.56                   15.6405
378.82                   15.6338
379.09                   15.6271
379.35                   15.6204
379.62                   15.6137
379.88                   15.6070
380.15                   15.6003
380.41                   15.5936
380.68                   15.5869
380.95                   15.5802
381.21                   15.5735
381.48                   15.5668
381.74                   15.5601
382.01                   15.5534
382.27                   15.5466
382.54                   15.5399
382.80                   15.5332
383.07                   15.5265
383.33                   15.5198
383.60                   15.5131
383.86                   15.5064
384.13                   15.4997
384.40                   15.4930
384.66                   15.4863
384.93                   15.4796
385.19                   15.4729
385.46                   15.4662
385.72                   15.4595
385.99                   15.4528
386.25                   15.4461
386.52                   15.4394
386.78                   15.4327
387.05                   15.4260
387.31                   15.4193
387.58                   15.4126
387.84                   15.4059
388.11                   15.3992
388.38                   15.3926
388.64                   15.3859
388.91                   15.3792
389.17                   15.3725
389.44                   15.3658
389.70                   15.3591
389.97                   15.3525
390.23                   15.3458
390.50                   15.3391
390.76                   15.3325
391.03                   15.3258
391.29                   15.3192
391.56                   15.3125
391.82                   15.3058
392.09                   15.2992
392.36                   15.2925
392.62                   15.2858
392.89                   15.2792
393.15                   15.2725
393.42                   15.2659
393.68                   15.2592
393.95                   15.2525
394.21                   15.2459
394.48                   15.2392
394.74                   15.2325
395.01                   15.2259
395.27                   15.2192
395.54                   15.2126
395.80                   15.2059
396.07                   15.1992
396.34                   15.1926
396.60                   15.1859
396.87                   15.1792
397.13                   15.1726
397.40                   15.1659
397.66                   15.1592
397.93                   15.1526
398.19                   15.1459
398.46                   15.1392
398.72                   15.1326
398.99                   15.1259
399.25                   15.1192
399.52                   15.1125
399.78                   15.1059
400.05                   15.0991
400.32                   15.0925
400.58                   15.0859
400.85                   15.0792
401.11                   15.0725
401.38                   15.0658
401.64                   15.0591
401.91                   15.0525
402.17                   15.0458
402.44                   15.0391
402.70                   15.0324
402.97                   15.0258
403.23                   15.0191
403.50                   15.0124
403.76                   15.0058
404.03                   14.9991
404.30                   14.9924
404.56                   14.9857
404.83                   14.9791
405.09                   14.9724
405.36                   14.9657
405.62                   14.9591
405.89                   14.9524
406.15                   14.9457
406.42                   14.9391
406.68                   14.9324
406.95                   14.9258
407.21                   14.9191
407.48                   14.9124
407.74                   14.9058
408.01                   14.8991
408.28                   14.8925
408.54                   14.8858
408.81                   14.8792
409.07                   14.8725
409.34                   14.8659
409.60                   14.8592
409.87                   14.8526
410.13                   14.8459
410.40                   14.8393
410.66                   14.8327
410.93                   14.8261
411.19                   14.8194
411.46                   14.8128
411.73                   14.8062
411.99                   14.7995
412.26                   14.7929
412.52                   14.7863
412.79                   14.7797
413.05                   14.7730
413.32                   14.7664
413.58                   14.7598
413.85                   14.7532
414.11                   14.7465
414.38                   14.7399
414.64                   14.7333
414.91                   14.7266
415.17                   14.7200
415.44                   14.7134
415.71                   14.7067
415.97                   14.7001
416.24                   14.6935
416.50                   14.6868
416.77                   14.6802
417.03                   14.6735
417.30                   14.6669
417.56                   14.6603
417.83                   14.6536
418.09                   14.6470
418.36                   14.6403
418.62                   14.6337
418.89                   14.6270
419.15                   14.6204
419.42                   14.6137
419.69                   14.6071
419.95                   14.6004
420.22                   14.5937
420.48                   14.5871
420.75                   14.5804
421.01                   14.5737
421.28                   14.5671
421.54                   14.5604
421.81                   14.5537
422.07                   14.5470
422.34                   14.5404
422.60                   14.5337
422.87                   14.5270
423.13                   14.5203
423.40                   14.5137
423.67                   14.5070
423.93                   14.5003
424.20                   14.4937
424.46                   14.4870
424.73                   14.4803
424.99                   14.4737
425.26                   14.4670
425.52                   14.4603
425.79                   14.4536
426.05                   14.4470
426.32                   14.4403
426.58                   14.4336
426.85                   14.4270
427.11                   14.4203
427.38                   14.4136
427.65                   14.4070
427.91                   14.4003
428.18                   14.3937
428.44                   14.3870
428.71                   14.3803
428.97                   14.3737
429.24                   14.3670
429.50                   14.3603
429.77                   14.3537
430.03                   14.3470
430.30                   14.3404
430.56                   14.3337
430.83                   14.3271
431.09                   14.3204
431.36                   14.3138
431.63                   14.3071
431.89                   14.3005
432.16                   14.2938
432.42                   14.2872
432.69                   14.2805
432.95                   14.2739
433.22                   14.2672
433.48                   14.2606
433.75                   14.2540
434.01                   14.2473
434.28                   14.2407
434.54                   14.2340
434.81                   14.2274
435.07                   14.2207
435.34                   14.2141
435.61                   14.2075
435.87                   14.2008
436.14                   14.1942
436.40                   14.1875
436.67                   14.1809
436.93                   14.1743
437.20                   14.1676
437.46                   14.1610
437.73                   14.1544
437.99                   14.1478
438.26                   14.1411
438.52                   14.1345
438.79                   14.1279
439.05                   14.1213
439.32                   14.1146
439.59                   14.1080
439.85                   14.1014
440.12                   14.0948
440.38                   14.0882
440.65                   14.0816
440.91                   14.0750
441.18                   14.0684
441.44                   14.0618
441.71                   14.0552
441.97                   14.0486
442.24                   14.0420
442.50                   14.0354
442.77                   14.0288
443.04                   14.0222
443.30                   14.0156
443.57                   14.0090
443.83                   14.0024
444.10                   13.9958
444.36                   13.9892
444.63                   13.9826
444.89                   13.9760
445.16                   13.9694
445.42                   13.9628
445.69                   13.9562
445.95                   13.9496
446.22                   13.9430
446.48                   13.9364
446.75                   13.9298
447.02                   13.9232
447.28                   13.9165
447.55                   13.9099
447.81                   13.9033
448.08                   13.8967
448.34                   13.8901
448.61                   13.8835
448.87                   13.8769
449.14                   13.8702
449.40                   13.8636
449.67                   13.8570
449.93                   13.8504
450.20                   13.8437
450.46                   13.8371
450.73                   13.8304
451.00                   13.8238
451.26                   13.8172
451.53                   13.8105
451.79                   13.8039
452.06                   13.7972
452.32                   13.7906
452.59                   13.7839
452.85                   13.7773
453.12                   13.7707
453.38                   13.7640
453.65                   13.7574
453.91                   13.7507
454.18                   13.7441
454.44                   13.7374
454.71                   13.7308
454.98                   13.7242
455.24                   13.7175
455.51                   13.7109
455.77                   13.7042
456.04                   13.6976
456.30                   13.6910
456.57                   13.6843
456.83                   13.6777
457.10                   13.6711
457.36                   13.6644
457.63                   13.6578
457.89                   13.6512
458.16                   13.6445
458.42                   13.6379
458.69                   13.6313
458.96                   13.6246
459.22                   13.6180
459.49                   13.6114
459.75                   13.6047
460.02                   13.5981
460.28                   13.5915
460.55                   13.5849
460.81                   13.5782
461.08                   13.5716
461.34                   13.5650
461.61                   13.5584
461.87                   13.5518
462.14                   13.5451
462.40                   13.5385
462.67                   13.5319
462.94                   13.5253
463.20                   13.5187
463.47                   13.5120
463.73                   13.5054
464.00                   13.4988
464.26                   13.4922
464.53                   13.4856
464.79                   13.4790
465.06                   13.4724
465.32                   13.4657
465.59                   13.4591
465.85                   13.4525
466.12                   13.4459
466.38                   13.4393
466.65                   13.4327
466.92                   13.4261
467.18                   13.4195
467.45                   13.4129
467.71                   13.4063
467.98                   13.3997
468.24                   13.3931
468.51                   13.3865
468.77                   13.3799
469.04                   13.3733
469.30                   13.3667
469.57                   13.3602
469.83                   13.3536
470.10                   13.3470
470.37                   13.3404
470.63                   13.3339
470.90                   13.3273
471.16                   13.3208
471.43                   13.3142
471.69                   13.3076
471.96                   13.3011
472.22                   13.2945
472.49                   13.2880
472.75                   13.2814
473.02                   13.2748
473.28                   13.2683
473.55                   13.2617
473.81                   13.2551
474.08                   13.2486
474.35                   13.2420
474.61                   13.2354
474.88                   13.2289
475.14                   13.2223
475.41                   13.2157
475.67                   13.2091
475.94                   13.2026
476.20                   13.1960
476.47                   13.1894
476.73                   13.1828
477.00                   13.1762
477.26                   13.1696
477.53                   13.1631
477.79                   13.1565
478.06                   13.1499
478.33                   13.1433
478.59                   13.1367
478.86                   13.1301
479.12                   13.1235
479.39                   13.1169
479.65                   13.1102
479.92                   13.1036
480.18                   13.0970
480.45                   13.0904
480.71                   13.0837
480.98                   13.0771
481.24                   13.0704
481.51                   13.0638
481.77                   13.0571
482.04                   13.0505
482.31                   13.0438
482.57                   13.0372
482.84                   13.0305
483.10                   13.0239
483.37                   13.0172
483.63                   13.0106
483.90                   13.0039
484.16                   12.9973
484.43                   12.9906
484.69                   12.9840
484.96                   12.9773
485.22                   12.9707
485.49                   12.9641
485.75                   12.9574
486.02                   12.9508
486.29                   12.9441
486.55                   12.9375
486.82                   12.9308
487.08                   12.9242
487.35                   12.9176
487.61                   12.9109
487.88                   12.9043
488.14                   12.8977
488.41                   12.8910
488.67                   12.8844
488.94                   12.8778
489.20                   12.8711
489.47                   12.8645
489.73                   12.8579
490.00                   12.8512
490.27                   12.8446
490.53                   12.8380
490.80                   12.8314
491.06                   12.8248
491.33                   12.8182
491.59                   12.8116
491.86                   12.8049
492.12                   12.7983
492.39                   12.7917
492.65                   12.7851
492.92                   12.7785
493.18                   12.7719
493.45                   12.7653
493.71                   12.7586
493.98                   12.7520
494.25                   12.7454
494.51                   12.7388
494.78                   12.7322
495.04                   12.7256
495.31                   12.7190
495.57                   12.7124
495.84                   12.7057
496.10                   12.6991
496.37                   12.6925
496.63                   12.6859
496.90                   12.6793
497.16                   12.6727
497.43                   12.6661
497.70                   12.6595
497.96                   12.6529
498.23                   12.6463
498.49                   12.6397
498.76                   12.6330
499.02                   12.6264
499.29                   12.6198
499.55                   12.6132
499.82                   12.6066
500.08                   12.6000
500.35                   12.5934
500.61                   12.5868
500.88                   12.5802
501.14                   12.5736
501.41                   12.5670
501.68                   12.5604
501.94                   12.5538
502.21                   12.5472
502.47                   12.5406
502.74                   12.5340
503.00                   12.5275
503.27                   12.5209
503.53                   12.5143
503.80                   12.5077
504.06                   12.5011
504.33                   12.4945
504.59                   12.4879
504.86                   12.4813
505.12                   12.4747
505.39                   12.4681
505.66                   12.4615
505.92                   12.4549
506.19                   12.4483
506.45                   12.4417
506.72                   12.4351
506.98                   12.4285
507.25                   12.4219
