# sky background 0.3-1.0um
# DARK optical sky - 50%ile conditions (day 7)
# AM=2.0
#
#derived from sky spectrum with constant slope to match assumed photometric background
#increasingly poor model at very bright sky (day14);  patched to near-IR background at 920nm
#
#1 March 2001 : Phil Puxley

#nm         phot/s/nm/arcsec^2/m^2
320.00                    0.0000
349.99                    0.0000
350.17                    0.8370
350.43                    0.8369
350.70                    0.8368
350.96                    0.8367
351.23                    0.8366
351.49                    0.8365
351.76                    0.8364
352.02                    0.8363
352.29                    0.8362
352.55                    0.8361
352.82                    0.8360
353.08                    0.8359
353.35                    0.8358
353.62                    0.8357
353.88                    0.8356
354.15                    0.8355
354.41                    0.8354
354.68                    0.8353
354.94                    0.8352
355.21                    0.8351
355.47                    0.8350
355.74                    0.8349
356.00                    0.8347
356.27                    0.8346
356.53                    0.8345
356.80                    0.8344
357.07                    0.8343
357.33                    0.8342
357.60                    0.8341
357.86                    0.8340
358.13                    0.8339
358.39                    0.8338
358.66                    0.8337
358.92                    0.8336
359.19                    0.8335
359.45                    0.8334
359.72                    0.8333
359.98                    0.8332
360.25                    0.8331
360.51                    0.8330
360.78                    0.8329
361.05                    0.8328
361.31                    0.8327
361.58                    0.8326
361.84                    0.8325
362.11                    0.8324
362.37                    0.8323
362.64                    0.8322
362.90                    0.8321
363.17                    0.8320
363.43                    0.8318
363.70                    0.8317
363.96                    0.8316
364.23                    0.8315
364.49                    0.8314
364.76                    0.8313
365.03                    0.8312
365.29                    0.8311
365.56                    0.8310
365.82                    0.8309
366.09                    0.8308
366.35                    0.8307
366.62                    0.8306
366.88                    0.8305
367.15                    0.8304
367.41                    0.8303
367.68                    0.8302
367.94                    0.8301
368.21                    0.8300
368.47                    0.8299
368.74                    0.8298
369.01                    0.8297
369.27                    0.8296
369.54                    0.8295
369.80                    0.8294
370.07                    0.8293
370.33                    0.8292
370.60                    0.8291
370.86                    0.8289
371.13                    0.8288
371.39                    0.8287
371.66                    0.8286
371.92                    0.8285
372.19                    0.8284
372.45                    0.8283
372.72                    0.8282
372.99                    0.8281
373.25                    0.8280
373.52                    0.8279
373.78                    0.8278
374.05                    0.8277
374.31                    0.8276
374.58                    0.8275
374.84                    0.8274
375.11                    0.8273
375.37                    0.8272
375.64                    0.8271
375.90                    0.8270
376.17                    0.8269
376.43                    0.8268
376.70                    0.8267
376.97                    0.8266
377.23                    0.8265
377.50                    0.8264
377.76                    0.8263
378.03                    0.8262
378.29                    0.8261
378.56                    0.8259
378.82                    0.8258
379.09                    0.8257
379.35                    0.8256
379.62                    0.8255
379.88                    0.8254
380.15                    0.8253
380.41                    0.8252
380.68                    0.8251
380.95                    0.8250
381.21                    0.8249
381.48                    0.8248
381.74                    0.8247
382.01                    0.8246
382.27                    0.8245
382.54                    0.8244
382.80                    0.8243
383.07                    0.8242
383.33                    0.8241
383.60                    0.8240
383.86                    0.8239
384.13                    0.8238
384.40                    0.8237
384.66                    0.8236
384.93                    0.8235
385.19                    0.8234
385.46                    0.8233
385.72                    0.8232
385.99                    0.8231
386.25                    0.8230
386.52                    0.8229
386.78                    0.8228
387.05                    0.8227
387.31                    0.8226
387.58                    0.8225
387.84                    0.8224
388.11                    0.8223
388.38                    0.8223
388.64                    0.8222
388.91                    0.8221
389.17                    0.8220
389.44                    0.8219
389.70                    0.8219
389.97                    0.8218
390.23                    0.8217
390.50                    0.8217
390.76                    0.8216
391.03                    0.8215
391.29                    0.8215
391.56                    0.8214
391.82                    0.8214
392.09                    0.8213
392.36                    0.8212
392.62                    0.8212
392.89                    0.8211
393.15                    0.8211
393.42                    0.8210
393.68                    0.8209
393.95                    0.8209
394.21                    0.8208
394.48                    0.8208
394.74                    0.8207
395.01                    0.8206
395.27                    0.8206
395.54                    0.8205
395.80                    0.8205
396.07                    0.8204
396.34                    0.8203
396.60                    0.8203
396.87                    0.8202
397.13                    0.8201
397.40                    0.8201
397.66                    0.8200
397.93                    0.8199
398.19                    0.8199
398.46                    0.8198
398.72                    0.8197
398.99                    0.8197
399.25                    0.8196
399.52                    0.8195
399.78                    0.8195
400.05                    0.8193
400.32                    0.8193
400.58                    0.8193
400.85                    0.8192
401.11                    0.8191
401.38                    0.8190
401.64                    0.8190
401.91                    0.8189
402.17                    0.8188
402.44                    0.8188
402.70                    0.8187
402.97                    0.8186
403.23                    0.8185
403.50                    0.8185
403.76                    0.8184
404.03                    0.8183
404.30                    0.8183
404.56                    0.8182
404.83                    0.8181
405.09                    0.8181
405.36                    0.8180
405.62                    0.8179
405.89                    0.8179
406.15                    0.8178
406.42                    0.8177
406.68                    0.8177
406.95                    0.8176
407.21                    0.8176
407.48                    0.8175
407.74                    0.8175
408.01                    0.8174
408.28                    0.8173
408.54                    0.8173
408.81                    0.8172
409.07                    0.8172
409.34                    0.8171
409.60                    0.8171
409.87                    0.8171
410.13                    0.8170
410.40                    0.8170
410.66                    0.8170
410.93                    0.8170
411.19                    0.8169
411.46                    0.8169
411.73                    0.8169
411.99                    0.8169
412.26                    0.8168
412.52                    0.8168
412.79                    0.8168
413.05                    0.8168
413.32                    0.8167
413.58                    0.8167
413.85                    0.8167
414.11                    0.8167
414.38                    0.8166
414.64                    0.8166
414.91                    0.8166
415.17                    0.8165
415.44                    0.8165
415.71                    0.8165
415.97                    0.8164
416.24                    0.8164
416.50                    0.8164
416.77                    0.8163
417.03                    0.8163
417.30                    0.8163
417.56                    0.8162
417.83                    0.8162
418.09                    0.8161
418.36                    0.8161
418.62                    0.8160
418.89                    0.8160
419.15                    0.8159
419.42                    0.8159
419.69                    0.8158
419.95                    0.8158
420.22                    0.8157
420.48                    0.8157
420.75                    0.8156
421.01                    0.8155
421.28                    0.8154
421.54                    0.8154
421.81                    0.8153
422.07                    0.8152
422.34                    0.8152
422.60                    0.8151
422.87                    0.8150
423.13                    0.8150
423.40                    0.8149
423.67                    0.8148
423.93                    0.8147
424.20                    0.8147
424.46                    0.8146
424.73                    0.8145
424.99                    0.8145
425.26                    0.8144
425.52                    0.8143
425.79                    0.8143
426.05                    0.8142
426.32                    0.8141
426.58                    0.8141
426.85                    0.8140
427.11                    0.8139
427.38                    0.8139
427.65                    0.8138
427.91                    0.8138
428.18                    0.8137
428.44                    0.8136
428.71                    0.8136
428.97                    0.8135
429.24                    0.8135
429.50                    0.8134
429.77                    0.8133
430.03                    0.8133
430.30                    0.8132
430.56                    0.8132
430.83                    0.8131
431.09                    0.8131
431.36                    0.8131
431.63                    0.8130
431.89                    0.8130
432.16                    0.8129
432.42                    0.8129
432.69                    0.8128
432.95                    0.8128
433.22                    0.8127
433.48                    0.8127
433.75                    0.8127
434.01                    0.8126
434.28                    0.8126
434.54                    0.8125
434.81                    0.8125
435.07                    0.8124
435.34                    0.8124
435.61                    0.8124
435.87                    0.8123
436.14                    0.8123
436.40                    0.8123
436.67                    0.8122
436.93                    0.8122
437.20                    0.8122
437.46                    0.8121
437.73                    0.8121
437.99                    0.8121
438.26                    0.8121
438.52                    0.8120
438.79                    0.8120
439.05                    0.8120
439.32                    0.8120
439.59                    0.8120
439.85                    0.8119
440.12                    0.8119
440.38                    0.8119
440.65                    0.8120
440.91                    0.8120
441.18                    0.8120
441.44                    0.8120
441.71                    0.8120
441.97                    0.8120
442.24                    0.8120
442.50                    0.8120
442.77                    0.8120
443.04                    0.8120
443.30                    0.8120
443.57                    0.8120
443.83                    0.8120
444.10                    0.8120
444.36                    0.8120
444.63                    0.8120
444.89                    0.8120
445.16                    0.8120
445.42                    0.8120
445.69                    0.8120
445.95                    0.8120
446.22                    0.8120
446.48                    0.8120
446.75                    0.8120
447.02                    0.8120
447.28                    0.8120
447.55                    0.8119
447.81                    0.8119
448.08                    0.8119
448.34                    0.8119
448.61                    0.8119
448.87                    0.8119
449.14                    0.8119
449.40                    0.8118
449.67                    0.8118
449.93                    0.8118
450.20                    0.8118
450.46                    0.8117
450.73                    0.8117
451.00                    0.8116
451.26                    0.8116
451.53                    0.8116
451.79                    0.8115
452.06                    0.8115
452.32                    0.8114
452.59                    0.8114
452.85                    0.8114
453.12                    0.8113
453.38                    0.8113
453.65                    0.8112
453.91                    0.8112
454.18                    0.8112
454.44                    0.8111
454.71                    0.8111
454.98                    0.8110
455.24                    0.8110
455.51                    0.8110
455.77                    0.8109
456.04                    0.8109
456.30                    0.8109
456.57                    0.8108
456.83                    0.8108
457.10                    0.8108
457.36                    0.8107
457.63                    0.8107
457.89                    0.8107
458.16                    0.8106
458.42                    0.8106
458.69                    0.8106
458.96                    0.8105
459.22                    0.8105
459.49                    0.8105
459.75                    0.8104
460.02                    0.8104
460.28                    0.8104
460.55                    0.8104
460.81                    0.8104
461.08                    0.8103
461.34                    0.8103
461.61                    0.8103
461.87                    0.8103
462.14                    0.8103
462.40                    0.8103
462.67                    0.8102
462.94                    0.8102
463.20                    0.8102
463.47                    0.8102
463.73                    0.8102
464.00                    0.8102
464.26                    0.8102
464.53                    0.8101
464.79                    0.8101
465.06                    0.8101
465.32                    0.8101
465.59                    0.8101
465.85                    0.8101
466.12                    0.8101
466.38                    0.8101
466.65                    0.8101
466.92                    0.8101
467.18                    0.8101
467.45                    0.8101
467.71                    0.8101
467.98                    0.8101
468.24                    0.8101
468.51                    0.8101
468.77                    0.8101
469.04                    0.8101
469.30                    0.8101
469.57                    0.8102
469.83                    0.8102
470.10                    0.8102
470.37                    0.8103
470.63                    0.8103
470.90                    0.8103
471.16                    0.8104
471.43                    0.8104
471.69                    0.8105
471.96                    0.8105
472.22                    0.8106
472.49                    0.8106
472.75                    0.8106
473.02                    0.8107
473.28                    0.8107
473.55                    0.8107
473.81                    0.8108
474.08                    0.8108
474.35                    0.8109
474.61                    0.8109
474.88                    0.8109
475.14                    0.8109
475.41                    0.8110
475.67                    0.8110
475.94                    0.8110
476.20                    0.8110
476.47                    0.8111
476.73                    0.8111
477.00                    0.8111
477.26                    0.8111
477.53                    0.8111
477.79                    0.8111
478.06                    0.8112
478.33                    0.8112
478.59                    0.8112
478.86                    0.8112
479.12                    0.8112
479.39                    0.8111
479.65                    0.8111
479.92                    0.8111
480.18                    0.8111
480.45                    0.8110
480.71                    0.8110
480.98                    0.8110
481.24                    0.8109
481.51                    0.8109
481.77                    0.8108
482.04                    0.8108
482.31                    0.8107
482.57                    0.8107
482.84                    0.8106
483.10                    0.8106
483.37                    0.8105
483.63                    0.8105
483.90                    0.8105
484.16                    0.8104
484.43                    0.8104
484.69                    0.8103
484.96                    0.8103
485.22                    0.8102
485.49                    0.8102
485.75                    0.8102
486.02                    0.8101
486.29                    0.8101
486.55                    0.8100
486.82                    0.8100
487.08                    0.8100
487.35                    0.8099
487.61                    0.8099
487.88                    0.8099
488.14                    0.8098
488.41                    0.8098
488.67                    0.8098
488.94                    0.8097
489.20                    0.8097
489.47                    0.8097
489.73                    0.8096
490.00                    0.8096
490.27                    0.8096
490.53                    0.8096
490.80                    0.8096
491.06                    0.8096
491.33                    0.8096
491.59                    0.8095
491.86                    0.8095
492.12                    0.8095
492.39                    0.8095
492.65                    0.8095
492.92                    0.8095
493.18                    0.8095
493.45                    0.8095
493.71                    0.8095
493.98                    0.8094
494.25                    0.8094
494.51                    0.8094
494.78                    0.8094
495.04                    0.8094
495.31                    0.8094
495.57                    0.8094
495.84                    0.8094
496.10                    0.8094
496.37                    0.8094
496.63                    0.8094
496.90                    0.8093
497.16                    0.8093
497.43                    0.8093
497.70                    0.8093
497.96                    0.8093
498.23                    0.8093
498.49                    0.8093
498.76                    0.8093
499.02                    0.8093
499.29                    0.8093
499.55                    0.8093
499.82                    0.8093
500.08                    0.8093
500.35                    0.8093
500.61                    0.8093
500.88                    0.8093
501.14                    0.8093
501.41                    0.8093
501.68                    0.8093
501.94                    0.8093
502.21                    0.8093
502.47                    0.8093
502.74                    0.8093
503.00                    0.8093
503.27                    0.8094
503.53                    0.8094
503.80                    0.8094
504.06                    0.8094
504.33                    0.8094
504.59                    0.8094
504.86                    0.8094
505.12                    0.8094
505.39                    0.8094
505.66                    0.8094
505.92                    0.8094
506.19                    0.8094
506.45                    0.8094
506.72                    0.8094
506.98                    0.8094
507.25                    0.8094
507.51                    0.8095
