# sky background 0.3-1.0um
# DARKEST optical sky - 20%ile conditions (day 3)
# AM=2.0
#
#derived from sky spectrum with constant slope to match assumed photometric background
#increasingly poor model at very bright sky (day14);  patched to near-IR background at 920nm
#
#1 March 2001 : Phil Puxley

#nm         phot/s/nm/arcsec^2/m^2
320.00                    0.0000
349.99                    0.0000
350.17                    0.3527
350.43                    0.3526
350.70                    0.3526
350.96                    0.3525
351.23                    0.3524
351.49                    0.3523
351.76                    0.3523
352.02                    0.3522
352.29                    0.3521
352.55                    0.3521
352.82                    0.3520
353.08                    0.3519
353.35                    0.3518
353.62                    0.3518
353.88                    0.3517
354.15                    0.3516
354.41                    0.3515
354.68                    0.3515
354.94                    0.3514
355.21                    0.3513
355.47                    0.3512
355.74                    0.3512
356.00                    0.3511
356.27                    0.3510
356.53                    0.3509
356.80                    0.3509
357.07                    0.3508
357.33                    0.3507
357.60                    0.3506
357.86                    0.3506
358.13                    0.3505
358.39                    0.3504
358.66                    0.3503
358.92                    0.3503
359.19                    0.3502
359.45                    0.3501
359.72                    0.3500
359.98                    0.3500
360.25                    0.3499
360.51                    0.3498
360.78                    0.3497
361.05                    0.3497
361.31                    0.3496
361.58                    0.3495
361.84                    0.3494
362.11                    0.3494
362.37                    0.3493
362.64                    0.3492
362.90                    0.3491
363.17                    0.3491
363.43                    0.3490
363.70                    0.3489
363.96                    0.3488
364.23                    0.3488
364.49                    0.3487
364.76                    0.3486
365.03                    0.3485
365.29                    0.3485
365.56                    0.3484
365.82                    0.3483
366.09                    0.3482
366.35                    0.3482
366.62                    0.3481
366.88                    0.3480
367.15                    0.3479
367.41                    0.3479
367.68                    0.3478
367.94                    0.3477
368.21                    0.3476
368.47                    0.3476
368.74                    0.3475
369.01                    0.3474
369.27                    0.3473
369.54                    0.3473
369.80                    0.3472
370.07                    0.3471
370.33                    0.3470
370.60                    0.3470
370.86                    0.3469
371.13                    0.3468
371.39                    0.3467
371.66                    0.3467
371.92                    0.3466
372.19                    0.3465
372.45                    0.3464
372.72                    0.3464
372.99                    0.3463
373.25                    0.3462
373.52                    0.3461
373.78                    0.3461
374.05                    0.3460
374.31                    0.3459
374.58                    0.3458
374.84                    0.3458
375.11                    0.3457
375.37                    0.3456
375.64                    0.3455
375.90                    0.3455
376.17                    0.3454
376.43                    0.3453
376.70                    0.3452
376.97                    0.3452
377.23                    0.3451
377.50                    0.3450
377.76                    0.3449
378.03                    0.3449
378.29                    0.3448
378.56                    0.3447
378.82                    0.3446
379.09                    0.3446
379.35                    0.3445
379.62                    0.3444
379.88                    0.3443
380.15                    0.3443
380.41                    0.3442
380.68                    0.3441
380.95                    0.3440
381.21                    0.3440
381.48                    0.3439
381.74                    0.3438
382.01                    0.3437
382.27                    0.3437
382.54                    0.3436
382.80                    0.3435
383.07                    0.3434
383.33                    0.3434
383.60                    0.3433
383.86                    0.3432
384.13                    0.3431
384.40                    0.3431
384.66                    0.3430
384.93                    0.3429
385.19                    0.3428
385.46                    0.3428
385.72                    0.3427
385.99                    0.3426
386.25                    0.3426
386.52                    0.3425
386.78                    0.3424
387.05                    0.3424
387.31                    0.3423
387.58                    0.3423
387.84                    0.3422
388.11                    0.3421
388.38                    0.3421
388.64                    0.3420
388.91                    0.3420
389.17                    0.3419
389.44                    0.3419
389.70                    0.3418
389.97                    0.3418
390.23                    0.3417
390.50                    0.3417
390.76                    0.3417
391.03                    0.3416
391.29                    0.3416
391.56                    0.3416
391.82                    0.3416
392.09                    0.3415
392.36                    0.3415
392.62                    0.3415
392.89                    0.3414
393.15                    0.3414
393.42                    0.3414
393.68                    0.3413
393.95                    0.3413
394.21                    0.3413
394.48                    0.3412
394.74                    0.3412
395.01                    0.3412
395.27                    0.3411
395.54                    0.3411
395.80                    0.3411
396.07                    0.3410
396.34                    0.3410
396.60                    0.3410
396.87                    0.3409
397.13                    0.3409
397.40                    0.3409
397.66                    0.3408
397.93                    0.3408
398.19                    0.3408
398.46                    0.3407
398.72                    0.3407
398.99                    0.3406
399.25                    0.3406
399.52                    0.3406
399.78                    0.3405
400.05                    0.3404
400.32                    0.3404
400.58                    0.3404
400.85                    0.3403
401.11                    0.3403
401.38                    0.3403
401.64                    0.3402
401.91                    0.3402
402.17                    0.3401
402.44                    0.3401
402.70                    0.3400
402.97                    0.3400
403.23                    0.3399
403.50                    0.3399
403.76                    0.3399
404.03                    0.3398
404.30                    0.3398
404.56                    0.3397
404.83                    0.3397
405.09                    0.3397
405.36                    0.3396
405.62                    0.3396
405.89                    0.3396
406.15                    0.3395
406.42                    0.3395
406.68                    0.3395
406.95                    0.3394
407.21                    0.3394
407.48                    0.3394
407.74                    0.3394
408.01                    0.3393
408.28                    0.3393
408.54                    0.3393
408.81                    0.3393
409.07                    0.3392
409.34                    0.3392
409.60                    0.3392
409.87                    0.3392
410.13                    0.3392
410.40                    0.3392
410.66                    0.3392
410.93                    0.3392
411.19                    0.3392
411.46                    0.3392
411.73                    0.3392
411.99                    0.3392
412.26                    0.3392
412.52                    0.3392
412.79                    0.3392
413.05                    0.3392
413.32                    0.3392
413.58                    0.3392
413.85                    0.3392
414.11                    0.3392
414.38                    0.3392
414.64                    0.3392
414.91                    0.3392
415.17                    0.3392
415.44                    0.3392
415.71                    0.3392
415.97                    0.3392
416.24                    0.3392
416.50                    0.3392
416.77                    0.3392
417.03                    0.3392
417.30                    0.3392
417.56                    0.3392
417.83                    0.3392
418.09                    0.3391
418.36                    0.3391
418.62                    0.3391
418.89                    0.3391
419.15                    0.3391
419.42                    0.3391
419.69                    0.3390
419.95                    0.3390
420.22                    0.3390
420.48                    0.3389
420.75                    0.3389
421.01                    0.3388
421.28                    0.3388
421.54                    0.3388
421.81                    0.3387
422.07                    0.3387
422.34                    0.3386
422.60                    0.3386
422.87                    0.3385
423.13                    0.3385
423.40                    0.3385
423.67                    0.3384
423.93                    0.3384
424.20                    0.3383
424.46                    0.3383
424.73                    0.3383
424.99                    0.3382
425.26                    0.3382
425.52                    0.3382
425.79                    0.3381
426.05                    0.3381
426.32                    0.3380
426.58                    0.3380
426.85                    0.3380
427.11                    0.3379
427.38                    0.3379
427.65                    0.3379
427.91                    0.3378
428.18                    0.3378
428.44                    0.3378
428.71                    0.3377
428.97                    0.3377
429.24                    0.3377
429.50                    0.3376
429.77                    0.3376
430.03                    0.3376
430.30                    0.3376
430.56                    0.3376
430.83                    0.3375
431.09                    0.3375
431.36                    0.3375
431.63                    0.3375
431.89                    0.3375
432.16                    0.3374
432.42                    0.3374
432.69                    0.3374
432.95                    0.3374
433.22                    0.3374
433.48                    0.3374
433.75                    0.3374
434.01                    0.3373
434.28                    0.3373
434.54                    0.3373
434.81                    0.3373
435.07                    0.3373
435.34                    0.3373
435.61                    0.3373
435.87                    0.3373
436.14                    0.3373
436.40                    0.3373
436.67                    0.3372
436.93                    0.3372
437.20                    0.3372
437.46                    0.3372
437.73                    0.3372
437.99                    0.3372
438.26                    0.3372
438.52                    0.3373
438.79                    0.3373
439.05                    0.3373
439.32                    0.3373
439.59                    0.3373
439.85                    0.3373
440.12                    0.3373
440.38                    0.3374
440.65                    0.3374
440.91                    0.3374
441.18                    0.3375
441.44                    0.3375
441.71                    0.3375
441.97                    0.3376
442.24                    0.3376
442.50                    0.3376
442.77                    0.3377
443.04                    0.3377
443.30                    0.3377
443.57                    0.3378
443.83                    0.3378
444.10                    0.3378
444.36                    0.3378
444.63                    0.3379
444.89                    0.3379
445.16                    0.3379
445.42                    0.3380
445.69                    0.3380
445.95                    0.3380
446.22                    0.3380
446.48                    0.3381
446.75                    0.3381
447.02                    0.3381
447.28                    0.3381
447.55                    0.3381
447.81                    0.3381
448.08                    0.3382
448.34                    0.3382
448.61                    0.3382
448.87                    0.3382
449.14                    0.3382
449.40                    0.3382
449.67                    0.3382
449.93                    0.3382
450.20                    0.3382
450.46                    0.3382
450.73                    0.3382
451.00                    0.3382
451.26                    0.3382
451.53                    0.3382
451.79                    0.3382
452.06                    0.3382
452.32                    0.3381
452.59                    0.3381
452.85                    0.3381
453.12                    0.3381
453.38                    0.3381
453.65                    0.3381
453.91                    0.3381
454.18                    0.3381
454.44                    0.3381
454.71                    0.3380
454.98                    0.3380
455.24                    0.3380
455.51                    0.3380
455.77                    0.3380
456.04                    0.3380
456.30                    0.3380
456.57                    0.3380
456.83                    0.3380
457.10                    0.3380
457.36                    0.3380
457.63                    0.3380
457.89                    0.3380
458.16                    0.3380
458.42                    0.3380
458.69                    0.3379
458.96                    0.3379
459.22                    0.3379
459.49                    0.3379
459.75                    0.3379
460.02                    0.3379
460.28                    0.3380
460.55                    0.3380
460.81                    0.3380
461.08                    0.3380
461.34                    0.3380
461.61                    0.3380
461.87                    0.3380
462.14                    0.3380
462.40                    0.3380
462.67                    0.3381
462.94                    0.3381
463.20                    0.3381
463.47                    0.3381
463.73                    0.3381
464.00                    0.3381
464.26                    0.3381
464.53                    0.3382
464.79                    0.3382
465.06                    0.3382
465.32                    0.3382
465.59                    0.3382
465.85                    0.3382
466.12                    0.3383
466.38                    0.3383
466.65                    0.3383
466.92                    0.3383
467.18                    0.3384
467.45                    0.3384
467.71                    0.3384
467.98                    0.3385
468.24                    0.3385
468.51                    0.3385
468.77                    0.3386
469.04                    0.3386
469.30                    0.3387
469.57                    0.3387
469.83                    0.3388
470.10                    0.3388
470.37                    0.3389
470.63                    0.3390
470.90                    0.3390
471.16                    0.3391
471.43                    0.3392
471.69                    0.3393
471.96                    0.3393
472.22                    0.3394
472.49                    0.3395
472.75                    0.3395
473.02                    0.3396
473.28                    0.3397
473.55                    0.3397
473.81                    0.3398
474.08                    0.3399
474.35                    0.3399
474.61                    0.3400
474.88                    0.3400
475.14                    0.3401
475.41                    0.3402
475.67                    0.3402
475.94                    0.3403
476.20                    0.3403
476.47                    0.3404
476.73                    0.3404
477.00                    0.3405
477.26                    0.3405
477.53                    0.3405
477.79                    0.3406
478.06                    0.3406
478.33                    0.3407
478.59                    0.3407
478.86                    0.3407
479.12                    0.3407
479.39                    0.3408
479.65                    0.3408
479.92                    0.3408
480.18                    0.3408
480.45                    0.3408
480.71                    0.3408
480.98                    0.3407
481.24                    0.3407
481.51                    0.3407
481.77                    0.3407
482.04                    0.3407
482.31                    0.3406
482.57                    0.3406
482.84                    0.3406
483.10                    0.3406
483.37                    0.3406
483.63                    0.3406
483.90                    0.3406
484.16                    0.3405
484.43                    0.3405
484.69                    0.3405
484.96                    0.3405
485.22                    0.3405
485.49                    0.3405
485.75                    0.3405
486.02                    0.3404
486.29                    0.3404
486.55                    0.3404
486.82                    0.3404
487.08                    0.3404
487.35                    0.3404
487.61                    0.3404
487.88                    0.3404
488.14                    0.3404
488.41                    0.3404
488.67                    0.3404
488.94                    0.3404
489.20                    0.3404
489.47                    0.3404
489.73                    0.3404
490.00                    0.3404
490.27                    0.3404
490.53                    0.3404
490.80                    0.3404
491.06                    0.3404
491.33                    0.3405
491.59                    0.3405
491.86                    0.3405
492.12                    0.3405
492.39                    0.3405
492.65                    0.3405
492.92                    0.3406
493.18                    0.3406
493.45                    0.3406
493.71                    0.3406
493.98                    0.3406
494.25                    0.3406
494.51                    0.3407
494.78                    0.3407
495.04                    0.3407
495.31                    0.3407
495.57                    0.3407
495.84                    0.3408
496.10                    0.3408
496.37                    0.3408
496.63                    0.3408
496.90                    0.3408
497.16                    0.3409
497.43                    0.3409
497.70                    0.3409
497.96                    0.3409
498.23                    0.3410
498.49                    0.3410
498.76                    0.3410
499.02                    0.3410
499.29                    0.3410
499.55                    0.3411
499.82                    0.3411
500.08                    0.3411
500.35                    0.3412
500.61                    0.3412
500.88                    0.3412
501.14                    0.3413
501.41                    0.3413
501.68                    0.3413
501.94                    0.3414
502.21                    0.3414
502.47                    0.3414
502.74                    0.3415
503.00                    0.3415
503.27                    0.3415
503.53                    0.3416
503.80                    0.3416
504.06                    0.3416
504.33                    0.3417
504.59                    0.3417
504.86                    0.3417
505.12                    0.3418
505.39                    0.3418
505.66                    0.3419
505.92                    0.3419
506.19                    0.3419
506.45                    0.3420
506.72                    0.3420
506.98                    0.3420
507.25                    0.3421
