# sky background 0.3-1.0um
# GREY optical sky - 80%ile conditions (day 11)
# AM=2.0
#
#derived from sky spectrum with constant slope to match assumed photometric background
#increasingly poor model at very bright sky (day14);  patched to near-IR background at 920nm
#
#1 March 2001 : Phil Puxley

#nm         phot/s/nm/arcsec^2/m^2
320.00                    0.0000
349.99                    0.0000
350.17                    3.1687
350.43                    3.1679
350.70                    3.1670
350.96                    3.1661
351.23                    3.1652
351.49                    3.1643
351.76                    3.1634
352.02                    3.1625
352.29                    3.1616
352.55                    3.1607
352.82                    3.1599
353.08                    3.1590
353.35                    3.1581
353.62                    3.1572
353.88                    3.1563
354.15                    3.1554
354.41                    3.1545
354.68                    3.1536
354.94                    3.1527
355.21                    3.1519
355.47                    3.1510
355.74                    3.1501
356.00                    3.1492
356.27                    3.1483
356.53                    3.1474
356.80                    3.1465
357.07                    3.1456
357.33                    3.1447
357.60                    3.1439
357.86                    3.1430
358.13                    3.1421
358.39                    3.1412
358.66                    3.1403
358.92                    3.1394
359.19                    3.1385
359.45                    3.1376
359.72                    3.1367
359.98                    3.1359
360.25                    3.1350
360.51                    3.1341
360.78                    3.1332
361.05                    3.1323
361.31                    3.1314
361.58                    3.1305
361.84                    3.1296
362.11                    3.1287
362.37                    3.1279
362.64                    3.1270
362.90                    3.1261
363.17                    3.1252
363.43                    3.1243
363.70                    3.1234
363.96                    3.1225
364.23                    3.1216
364.49                    3.1207
364.76                    3.1199
365.03                    3.1190
365.29                    3.1181
365.56                    3.1172
365.82                    3.1163
366.09                    3.1154
366.35                    3.1145
366.62                    3.1136
366.88                    3.1127
367.15                    3.1119
367.41                    3.1110
367.68                    3.1101
367.94                    3.1092
368.21                    3.1083
368.47                    3.1074
368.74                    3.1065
369.01                    3.1056
369.27                    3.1048
369.54                    3.1039
369.80                    3.1030
370.07                    3.1021
370.33                    3.1012
370.60                    3.1003
370.86                    3.0994
371.13                    3.0985
371.39                    3.0976
371.66                    3.0968
371.92                    3.0959
372.19                    3.0950
372.45                    3.0941
372.72                    3.0932
372.99                    3.0923
373.25                    3.0914
373.52                    3.0905
373.78                    3.0896
374.05                    3.0888
374.31                    3.0879
374.58                    3.0870
374.84                    3.0861
375.11                    3.0852
375.37                    3.0843
375.64                    3.0834
375.90                    3.0825
376.17                    3.0816
376.43                    3.0808
376.70                    3.0799
376.97                    3.0790
377.23                    3.0781
377.50                    3.0772
377.76                    3.0763
378.03                    3.0754
378.29                    3.0745
378.56                    3.0736
378.82                    3.0728
379.09                    3.0719
379.35                    3.0710
379.62                    3.0701
379.88                    3.0692
380.15                    3.0683
380.41                    3.0674
380.68                    3.0665
380.95                    3.0656
381.21                    3.0648
381.48                    3.0639
381.74                    3.0630
382.01                    3.0621
382.27                    3.0612
382.54                    3.0603
382.80                    3.0594
383.07                    3.0585
383.33                    3.0576
383.60                    3.0568
383.86                    3.0559
384.13                    3.0550
384.40                    3.0541
384.66                    3.0532
384.93                    3.0523
385.19                    3.0514
385.46                    3.0506
385.72                    3.0497
385.99                    3.0488
386.25                    3.0479
386.52                    3.0470
386.78                    3.0461
387.05                    3.0453
387.31                    3.0444
387.58                    3.0435
387.84                    3.0426
388.11                    3.0418
388.38                    3.0409
388.64                    3.0400
388.91                    3.0392
389.17                    3.0383
389.44                    3.0374
389.70                    3.0366
389.97                    3.0357
390.23                    3.0349
390.50                    3.0340
390.76                    3.0332
391.03                    3.0323
391.29                    3.0315
391.56                    3.0306
391.82                    3.0298
392.09                    3.0290
392.36                    3.0281
392.62                    3.0273
392.89                    3.0264
393.15                    3.0256
393.42                    3.0247
393.68                    3.0239
393.95                    3.0230
394.21                    3.0222
394.48                    3.0213
394.74                    3.0205
395.01                    3.0197
395.27                    3.0188
395.54                    3.0180
395.80                    3.0171
396.07                    3.0163
396.34                    3.0154
396.60                    3.0146
396.87                    3.0137
397.13                    3.0129
397.40                    3.0120
397.66                    3.0112
397.93                    3.0103
398.19                    3.0095
398.46                    3.0086
398.72                    3.0078
398.99                    3.0069
399.25                    3.0061
399.52                    3.0052
399.78                    3.0043
400.05                    3.0034
400.32                    3.0026
400.58                    3.0018
400.85                    3.0009
401.11                    3.0001
401.38                    2.9992
401.64                    2.9983
401.91                    2.9975
402.17                    2.9966
402.44                    2.9958
402.70                    2.9949
402.97                    2.9941
403.23                    2.9932
403.50                    2.9923
403.76                    2.9915
404.03                    2.9906
404.30                    2.9898
404.56                    2.9889
404.83                    2.9881
405.09                    2.9872
405.36                    2.9864
405.62                    2.9855
405.89                    2.9847
406.15                    2.9838
406.42                    2.9830
406.68                    2.9821
406.95                    2.9813
407.21                    2.9805
407.48                    2.9796
407.74                    2.9788
408.01                    2.9779
408.28                    2.9771
408.54                    2.9763
408.81                    2.9754
409.07                    2.9746
409.34                    2.9738
409.60                    2.9729
409.87                    2.9721
410.13                    2.9713
410.40                    2.9705
410.66                    2.9697
410.93                    2.9689
411.19                    2.9680
411.46                    2.9672
411.73                    2.9664
411.99                    2.9656
412.26                    2.9648
412.52                    2.9640
412.79                    2.9632
413.05                    2.9624
413.32                    2.9616
413.58                    2.9608
413.85                    2.9599
414.11                    2.9591
414.38                    2.9583
414.64                    2.9575
414.91                    2.9567
415.17                    2.9559
415.44                    2.9551
415.71                    2.9542
415.97                    2.9534
416.24                    2.9526
416.50                    2.9518
416.77                    2.9510
417.03                    2.9501
417.30                    2.9493
417.56                    2.9485
417.83                    2.9477
418.09                    2.9468
418.36                    2.9460
418.62                    2.9452
418.89                    2.9443
419.15                    2.9435
419.42                    2.9427
419.69                    2.9418
419.95                    2.9410
420.22                    2.9401
420.48                    2.9393
420.75                    2.9384
421.01                    2.9376
421.28                    2.9367
421.54                    2.9359
421.81                    2.9350
422.07                    2.9341
422.34                    2.9333
422.60                    2.9324
422.87                    2.9316
423.13                    2.9307
423.40                    2.9299
423.67                    2.9290
423.93                    2.9282
424.20                    2.9273
424.46                    2.9265
424.73                    2.9256
424.99                    2.9248
425.26                    2.9239
425.52                    2.9230
425.79                    2.9222
426.05                    2.9213
426.32                    2.9205
426.58                    2.9196
426.85                    2.9188
427.11                    2.9179
427.38                    2.9171
427.65                    2.9162
427.91                    2.9154
428.18                    2.9146
428.44                    2.9137
428.71                    2.9129
428.97                    2.9120
429.24                    2.9112
429.50                    2.9103
429.77                    2.9095
430.03                    2.9086
430.30                    2.9078
430.56                    2.9070
430.83                    2.9062
431.09                    2.9053
431.36                    2.9045
431.63                    2.9037
431.89                    2.9028
432.16                    2.9020
432.42                    2.9012
432.69                    2.9003
432.95                    2.8995
433.22                    2.8987
433.48                    2.8978
433.75                    2.8970
434.01                    2.8962
434.28                    2.8954
434.54                    2.8945
434.81                    2.8937
435.07                    2.8929
435.34                    2.8921
435.61                    2.8912
435.87                    2.8904
436.14                    2.8896
436.40                    2.8888
436.67                    2.8880
436.93                    2.8871
437.20                    2.8863
437.46                    2.8855
437.73                    2.8847
437.99                    2.8839
438.26                    2.8831
438.52                    2.8823
438.79                    2.8815
439.05                    2.8807
439.32                    2.8799
439.59                    2.8790
439.85                    2.8782
440.12                    2.8775
440.38                    2.8767
440.65                    2.8759
440.91                    2.8751
441.18                    2.8743
441.44                    2.8736
441.71                    2.8728
441.97                    2.8720
442.24                    2.8712
442.50                    2.8704
442.77                    2.8697
443.04                    2.8689
443.30                    2.8681
443.57                    2.8673
443.83                    2.8665
444.10                    2.8658
444.36                    2.8650
444.63                    2.8642
444.89                    2.8634
445.16                    2.8626
445.42                    2.8618
445.69                    2.8610
445.95                    2.8602
446.22                    2.8594
446.48                    2.8587
446.75                    2.8579
447.02                    2.8571
447.28                    2.8563
447.55                    2.8555
447.81                    2.8547
448.08                    2.8539
448.34                    2.8531
448.61                    2.8523
448.87                    2.8515
449.14                    2.8507
449.40                    2.8499
449.67                    2.8491
449.93                    2.8483
450.20                    2.8474
450.46                    2.8466
450.73                    2.8458
451.00                    2.8450
451.26                    2.8441
451.53                    2.8433
451.79                    2.8425
452.06                    2.8417
452.32                    2.8408
452.59                    2.8400
452.85                    2.8392
453.12                    2.8384
453.38                    2.8375
453.65                    2.8367
453.91                    2.8359
454.18                    2.8351
454.44                    2.8342
454.71                    2.8334
454.98                    2.8326
455.24                    2.8318
455.51                    2.8309
455.77                    2.8301
456.04                    2.8293
456.30                    2.8285
456.57                    2.8277
456.83                    2.8268
457.10                    2.8260
457.36                    2.8252
457.63                    2.8244
457.89                    2.8236
458.16                    2.8228
458.42                    2.8219
458.69                    2.8211
458.96                    2.8203
459.22                    2.8195
459.49                    2.8187
459.75                    2.8179
460.02                    2.8170
460.28                    2.8162
460.55                    2.8154
460.81                    2.8146
461.08                    2.8138
461.34                    2.8130
461.61                    2.8122
461.87                    2.8114
462.14                    2.8106
462.40                    2.8098
462.67                    2.8090
462.94                    2.8082
463.20                    2.8074
463.47                    2.8066
463.73                    2.8058
464.00                    2.8050
464.26                    2.8042
464.53                    2.8034
464.79                    2.8026
465.06                    2.8018
465.32                    2.8010
465.59                    2.8002
465.85                    2.7994
466.12                    2.7987
466.38                    2.7979
466.65                    2.7971
466.92                    2.7963
467.18                    2.7955
467.45                    2.7947
467.71                    2.7939
467.98                    2.7931
468.24                    2.7924
468.51                    2.7916
468.77                    2.7908
469.04                    2.7901
469.30                    2.7893
469.57                    2.7885
469.83                    2.7877
470.10                    2.7870
470.37                    2.7863
470.63                    2.7855
470.90                    2.7848
471.16                    2.7840
471.43                    2.7833
471.69                    2.7825
471.96                    2.7818
472.22                    2.7811
472.49                    2.7803
472.75                    2.7796
473.02                    2.7788
473.28                    2.7781
473.55                    2.7773
473.81                    2.7766
474.08                    2.7758
474.35                    2.7751
474.61                    2.7743
474.88                    2.7736
475.14                    2.7728
475.41                    2.7721
475.67                    2.7713
475.94                    2.7705
476.20                    2.7698
476.47                    2.7690
476.73                    2.7682
477.00                    2.7675
477.26                    2.7667
477.53                    2.7659
477.79                    2.7652
478.06                    2.7644
478.33                    2.7636
478.59                    2.7628
478.86                    2.7620
479.12                    2.7612
479.39                    2.7605
479.65                    2.7597
479.92                    2.7589
480.18                    2.7580
480.45                    2.7572
480.71                    2.7564
480.98                    2.7555
481.24                    2.7547
481.51                    2.7539
481.77                    2.7531
482.04                    2.7522
482.31                    2.7514
482.57                    2.7506
482.84                    2.7497
483.10                    2.7489
483.37                    2.7481
483.63                    2.7472
483.90                    2.7464
484.16                    2.7456
484.43                    2.7447
484.69                    2.7439
484.96                    2.7431
485.22                    2.7423
485.49                    2.7414
485.75                    2.7406
486.02                    2.7398
486.29                    2.7390
486.55                    2.7381
486.82                    2.7373
487.08                    2.7365
487.35                    2.7357
487.61                    2.7348
487.88                    2.7340
488.14                    2.7332
488.41                    2.7324
488.67                    2.7316
488.94                    2.7308
489.20                    2.7299
489.47                    2.7291
489.73                    2.7283
490.00                    2.7275
490.27                    2.7267
490.53                    2.7259
490.80                    2.7251
491.06                    2.7243
491.33                    2.7235
491.59                    2.7227
491.86                    2.7219
492.12                    2.7211
492.39                    2.7203
492.65                    2.7195
492.92                    2.7187
493.18                    2.7180
493.45                    2.7172
493.71                    2.7164
493.98                    2.7156
494.25                    2.7148
494.51                    2.7140
494.78                    2.7132
495.04                    2.7124
495.31                    2.7116
495.57                    2.7108
495.84                    2.7100
496.10                    2.7092
496.37                    2.7084
496.63                    2.7076
496.90                    2.7068
497.16                    2.7060
497.43                    2.7052
497.70                    2.7044
497.96                    2.7037
498.23                    2.7029
498.49                    2.7021
498.76                    2.7013
499.02                    2.7005
499.29                    2.6997
499.55                    2.6989
499.82                    2.6981
500.08                    2.6973
500.35                    2.6966
500.61                    2.6958
500.88                    2.6950
501.14                    2.6942
501.41                    2.6934
501.68                    2.6927
501.94                    2.6919
502.21                    2.6911
502.47                    2.6903
502.74                    2.6895
503.00                    2.6888
503.27                    2.6880
503.53                    2.6872
503.80                    2.6864
504.06                    2.6856
504.33                    2.6849
504.59                    2.6841
504.86                    2.6833
505.12                    2.6825
505.39                    2.6818
505.66                    2.6810
505.92                    2.6802
506.19                    2.6794
506.45                    2.6786
506.72                    2.6779
506.98                    2.6771
507.25                    2.6763
507.51                    2.6755
