# sky background 0.3-1.0um
# DARKEST optical sky - 20%ile conditions (day 3)
# AM=1.5
#
#derived from sky spectrum with constant slope to match assumed photometric background
#increasingly poor model at very bright sky (day14);  patched to near-IR background at 920nm
#
#1 March 2001 : Phil Puxley

#nm         phot/s/nm/arcsec^2/m^2
320.00                    0.0000
349.99                    0.0000
350.17                    0.3353
350.43                    0.3352
350.70                    0.3350
350.96                    0.3349
351.23                    0.3348
351.49                    0.3346
351.76                    0.3345
352.02                    0.3344
352.29                    0.3342
352.55                    0.3341
352.82                    0.3340
353.08                    0.3338
353.35                    0.3337
353.62                    0.3336
353.88                    0.3334
354.15                    0.3333
354.41                    0.3332
354.68                    0.3330
354.94                    0.3329
355.21                    0.3328
355.47                    0.3326
355.74                    0.3325
356.00                    0.3324
356.27                    0.3322
356.53                    0.3321
356.80                    0.3320
357.07                    0.3318
357.33                    0.3317
357.60                    0.3316
357.86                    0.3314
358.13                    0.3313
358.39                    0.3312
358.66                    0.3310
358.92                    0.3309
359.19                    0.3308
359.45                    0.3306
359.72                    0.3305
359.98                    0.3304
360.25                    0.3302
360.51                    0.3301
360.78                    0.3300
361.05                    0.3298
361.31                    0.3297
361.58                    0.3296
361.84                    0.3294
362.11                    0.3293
362.37                    0.3292
362.64                    0.3291
362.90                    0.3289
363.17                    0.3288
363.43                    0.3287
363.70                    0.3285
363.96                    0.3284
364.23                    0.3283
364.49                    0.3281
364.76                    0.3280
365.03                    0.3279
365.29                    0.3277
365.56                    0.3276
365.82                    0.3275
366.09                    0.3273
366.35                    0.3272
366.62                    0.3271
366.88                    0.3269
367.15                    0.3268
367.41                    0.3267
367.68                    0.3265
367.94                    0.3264
368.21                    0.3263
368.47                    0.3261
368.74                    0.3260
369.01                    0.3259
369.27                    0.3257
369.54                    0.3256
369.80                    0.3255
370.07                    0.3253
370.33                    0.3252
370.60                    0.3251
370.86                    0.3249
371.13                    0.3248
371.39                    0.3247
371.66                    0.3245
371.92                    0.3244
372.19                    0.3243
372.45                    0.3241
372.72                    0.3240
372.99                    0.3239
373.25                    0.3237
373.52                    0.3236
373.78                    0.3235
374.05                    0.3233
374.31                    0.3232
374.58                    0.3231
374.84                    0.3229
375.11                    0.3228
375.37                    0.3227
375.64                    0.3225
375.90                    0.3224
376.17                    0.3223
376.43                    0.3221
376.70                    0.3220
376.97                    0.3219
377.23                    0.3217
377.50                    0.3216
377.76                    0.3215
378.03                    0.3213
378.29                    0.3212
378.56                    0.3211
378.82                    0.3209
379.09                    0.3208
379.35                    0.3207
379.62                    0.3205
379.88                    0.3204
380.15                    0.3203
380.41                    0.3201
380.68                    0.3200
380.95                    0.3199
381.21                    0.3198
381.48                    0.3196
381.74                    0.3195
382.01                    0.3194
382.27                    0.3192
382.54                    0.3191
382.80                    0.3190
383.07                    0.3188
383.33                    0.3187
383.60                    0.3186
383.86                    0.3184
384.13                    0.3183
384.40                    0.3182
384.66                    0.3180
384.93                    0.3179
385.19                    0.3178
385.46                    0.3176
385.72                    0.3175
385.99                    0.3174
386.25                    0.3173
386.52                    0.3171
386.78                    0.3170
387.05                    0.3169
387.31                    0.3168
387.58                    0.3167
387.84                    0.3165
388.11                    0.3164
388.38                    0.3163
388.64                    0.3162
388.91                    0.3161
389.17                    0.3160
389.44                    0.3159
389.70                    0.3158
389.97                    0.3157
390.23                    0.3156
390.50                    0.3155
390.76                    0.3154
391.03                    0.3153
391.29                    0.3152
391.56                    0.3151
391.82                    0.3150
392.09                    0.3149
392.36                    0.3149
392.62                    0.3148
392.89                    0.3147
393.15                    0.3146
393.42                    0.3145
393.68                    0.3144
393.95                    0.3143
394.21                    0.3142
394.48                    0.3141
394.74                    0.3140
395.01                    0.3140
395.27                    0.3139
395.54                    0.3138
395.80                    0.3137
396.07                    0.3136
396.34                    0.3135
396.60                    0.3134
396.87                    0.3133
397.13                    0.3132
397.40                    0.3131
397.66                    0.3130
397.93                    0.3129
398.19                    0.3128
398.46                    0.3127
398.72                    0.3127
398.99                    0.3126
399.25                    0.3125
399.52                    0.3124
399.78                    0.3122
400.05                    0.3121
400.32                    0.3121
400.58                    0.3120
400.85                    0.3119
401.11                    0.3118
401.38                    0.3117
401.64                    0.3115
401.91                    0.3114
402.17                    0.3113
402.44                    0.3112
402.70                    0.3111
402.97                    0.3110
403.23                    0.3109
403.50                    0.3108
403.76                    0.3107
404.03                    0.3106
404.30                    0.3105
404.56                    0.3104
404.83                    0.3103
405.09                    0.3103
405.36                    0.3102
405.62                    0.3101
405.89                    0.3100
406.15                    0.3099
406.42                    0.3098
406.68                    0.3097
406.95                    0.3096
407.21                    0.3095
407.48                    0.3094
407.74                    0.3094
408.01                    0.3093
408.28                    0.3092
408.54                    0.3091
408.81                    0.3090
409.07                    0.3089
409.34                    0.3089
409.60                    0.3088
409.87                    0.3087
410.13                    0.3087
410.40                    0.3086
410.66                    0.3086
410.93                    0.3085
411.19                    0.3085
411.46                    0.3084
411.73                    0.3083
411.99                    0.3083
412.26                    0.3082
412.52                    0.3082
412.79                    0.3081
413.05                    0.3081
413.32                    0.3080
413.58                    0.3080
413.85                    0.3079
414.11                    0.3079
414.38                    0.3078
414.64                    0.3077
414.91                    0.3077
415.17                    0.3076
415.44                    0.3076
415.71                    0.3075
415.97                    0.3074
416.24                    0.3074
416.50                    0.3073
416.77                    0.3072
417.03                    0.3072
417.30                    0.3071
417.56                    0.3070
417.83                    0.3070
418.09                    0.3069
418.36                    0.3068
418.62                    0.3067
418.89                    0.3067
419.15                    0.3066
419.42                    0.3065
419.69                    0.3064
419.95                    0.3063
420.22                    0.3062
420.48                    0.3062
420.75                    0.3060
421.01                    0.3059
421.28                    0.3058
421.54                    0.3057
421.81                    0.3056
422.07                    0.3055
422.34                    0.3055
422.60                    0.3054
422.87                    0.3053
423.13                    0.3052
423.40                    0.3051
423.67                    0.3050
423.93                    0.3049
424.20                    0.3048
424.46                    0.3047
424.73                    0.3046
424.99                    0.3045
425.26                    0.3044
425.52                    0.3043
425.79                    0.3042
426.05                    0.3041
426.32                    0.3040
426.58                    0.3039
426.85                    0.3038
427.11                    0.3037
427.38                    0.3036
427.65                    0.3035
427.91                    0.3034
428.18                    0.3033
428.44                    0.3033
428.71                    0.3032
428.97                    0.3031
429.24                    0.3030
429.50                    0.3029
429.77                    0.3028
430.03                    0.3027
430.30                    0.3027
430.56                    0.3026
430.83                    0.3025
431.09                    0.3024
431.36                    0.3023
431.63                    0.3023
431.89                    0.3022
432.16                    0.3021
432.42                    0.3020
432.69                    0.3020
432.95                    0.3019
433.22                    0.3018
433.48                    0.3018
433.75                    0.3017
434.01                    0.3016
434.28                    0.3015
434.54                    0.3015
434.81                    0.3014
435.07                    0.3013
435.34                    0.3013
435.61                    0.3012
435.87                    0.3011
436.14                    0.3011
436.40                    0.3010
436.67                    0.3009
436.93                    0.3009
437.20                    0.3008
437.46                    0.3008
437.73                    0.3007
437.99                    0.3006
438.26                    0.3006
438.52                    0.3005
438.79                    0.3005
439.05                    0.3004
439.32                    0.3004
439.59                    0.3003
439.85                    0.3003
440.12                    0.3003
440.38                    0.3002
440.65                    0.3002
440.91                    0.3002
441.18                    0.3002
441.44                    0.3001
441.71                    0.3001
441.97                    0.3001
442.24                    0.3001
442.50                    0.3000
442.77                    0.3000
443.04                    0.3000
443.30                    0.3000
443.57                    0.2999
443.83                    0.2999
444.10                    0.2999
444.36                    0.2999
444.63                    0.2998
444.89                    0.2998
445.16                    0.2998
445.42                    0.2997
445.69                    0.2997
445.95                    0.2997
446.22                    0.2996
446.48                    0.2996
446.75                    0.2996
447.02                    0.2995
447.28                    0.2995
447.55                    0.2994
447.81                    0.2994
448.08                    0.2994
448.34                    0.2993
448.61                    0.2993
448.87                    0.2992
449.14                    0.2992
449.40                    0.2991
449.67                    0.2991
449.93                    0.2990
450.20                    0.2990
450.46                    0.2989
450.73                    0.2988
451.00                    0.2988
451.26                    0.2987
451.53                    0.2986
451.79                    0.2986
452.06                    0.2985
452.32                    0.2984
452.59                    0.2983
452.85                    0.2983
453.12                    0.2982
453.38                    0.2981
453.65                    0.2981
453.91                    0.2980
454.18                    0.2979
454.44                    0.2979
454.71                    0.2978
454.98                    0.2977
455.24                    0.2977
455.51                    0.2976
455.77                    0.2975
456.04                    0.2975
456.30                    0.2974
456.57                    0.2973
456.83                    0.2973
457.10                    0.2972
457.36                    0.2971
457.63                    0.2971
457.89                    0.2970
458.16                    0.2970
458.42                    0.2969
458.69                    0.2968
458.96                    0.2968
459.22                    0.2967
459.49                    0.2967
459.75                    0.2966
460.02                    0.2965
460.28                    0.2965
460.55                    0.2964
460.81                    0.2964
461.08                    0.2963
461.34                    0.2963
461.61                    0.2963
461.87                    0.2962
462.14                    0.2962
462.40                    0.2961
462.67                    0.2961
462.94                    0.2960
463.20                    0.2960
463.47                    0.2959
463.73                    0.2959
464.00                    0.2959
464.26                    0.2958
464.53                    0.2958
464.79                    0.2957
465.06                    0.2957
465.32                    0.2956
465.59                    0.2956
465.85                    0.2956
466.12                    0.2955
466.38                    0.2955
466.65                    0.2955
466.92                    0.2954
467.18                    0.2954
467.45                    0.2954
467.71                    0.2954
467.98                    0.2953
468.24                    0.2953
468.51                    0.2953
468.77                    0.2953
469.04                    0.2953
469.30                    0.2952
469.57                    0.2952
469.83                    0.2952
470.10                    0.2952
470.37                    0.2952
470.63                    0.2952
470.90                    0.2953
471.16                    0.2953
471.43                    0.2953
471.69                    0.2953
471.96                    0.2953
472.22                    0.2953
472.49                    0.2953
472.75                    0.2953
473.02                    0.2954
473.28                    0.2954
473.55                    0.2954
473.81                    0.2954
474.08                    0.2954
474.35                    0.2954
474.61                    0.2954
474.88                    0.2954
475.14                    0.2954
475.41                    0.2954
475.67                    0.2954
475.94                    0.2954
476.20                    0.2954
476.47                    0.2954
476.73                    0.2954
477.00                    0.2953
477.26                    0.2953
477.53                    0.2953
477.79                    0.2953
478.06                    0.2953
478.33                    0.2953
478.59                    0.2952
478.86                    0.2952
479.12                    0.2952
479.39                    0.2951
479.65                    0.2951
479.92                    0.2950
480.18                    0.2950
480.45                    0.2949
480.71                    0.2948
480.98                    0.2948
481.24                    0.2947
481.51                    0.2946
481.77                    0.2945
482.04                    0.2945
482.31                    0.2944
482.57                    0.2943
482.84                    0.2942
483.10                    0.2942
483.37                    0.2941
483.63                    0.2940
483.90                    0.2939
484.16                    0.2939
484.43                    0.2938
484.69                    0.2937
484.96                    0.2936
485.22                    0.2936
485.49                    0.2935
485.75                    0.2934
486.02                    0.2934
486.29                    0.2933
486.55                    0.2932
486.82                    0.2932
487.08                    0.2931
487.35                    0.2930
487.61                    0.2930
487.88                    0.2929
488.14                    0.2928
488.41                    0.2928
488.67                    0.2927
488.94                    0.2926
489.20                    0.2926
489.47                    0.2925
489.73                    0.2925
490.00                    0.2924
490.27                    0.2924
490.53                    0.2923
490.80                    0.2923
491.06                    0.2923
491.33                    0.2922
491.59                    0.2922
491.86                    0.2921
492.12                    0.2921
492.39                    0.2921
492.65                    0.2920
492.92                    0.2920
493.18                    0.2919
493.45                    0.2919
493.71                    0.2919
493.98                    0.2918
494.25                    0.2918
494.51                    0.2917
494.78                    0.2917
495.04                    0.2917
495.31                    0.2916
495.57                    0.2916
495.84                    0.2915
496.10                    0.2915
496.37                    0.2915
496.63                    0.2914
496.90                    0.2914
497.16                    0.2914
497.43                    0.2913
497.70                    0.2913
497.96                    0.2912
498.23                    0.2912
498.49                    0.2912
498.76                    0.2911
499.02                    0.2911
499.29                    0.2911
499.55                    0.2910
499.82                    0.2910
500.08                    0.2910
500.35                    0.2909
500.61                    0.2909
500.88                    0.2909
501.14                    0.2909
501.41                    0.2909
501.68                    0.2908
501.94                    0.2908
502.21                    0.2908
502.47                    0.2908
502.74                    0.2907
503.00                    0.2907
503.27                    0.2907
503.53                    0.2907
503.80                    0.2906
504.06                    0.2906
504.33                    0.2906
504.59                    0.2906
504.86                    0.2906
505.12                    0.2905
505.39                    0.2905
505.66                    0.2905
505.92                    0.2905
506.19                    0.2904
506.45                    0.2904
506.72                    0.2904
506.98                    0.2904
507.25                    0.2903
