# tel_emiss.dat
# 3 Al mirrors
# 
#  Modification of original spectrum from tel_emiss2.dat
#
#   Wavelength        Flux density
#   (nm)          (ph/sec/nm/arcsec2/m2)
#
#  Created by Carlos Alvarez and Francisco Ramos  (Observatory Roque de los Muchachos ) 2014 May

   7000 343064.40
   7002 343393.50
   7004 343721.40
   7006 344050.50
   7008 344379.00
   7010 344707.20
   7012 345035.85
   7014 345364.65
   7016 345693.15
   7018 346021.95
   7020 346350.30
   7022 346679.10
   7024 347007.30
   7026 347335.80
   7028 347664.90
   7030 347993.40
   7032 348322.35
   7034 348650.70
   7036 348979.65
   7038 349308.60
   7040 349637.40
   7042 349965.75
   7044 350295.00
   7046 350623.20
   7048 350952.45
   7050 351281.25
   7052 351609.75
   7054 351938.55
   7056 352267.50
   7058 352596.15
   7060 352925.25
   7062 353253.75
   7064 353582.55
   7066 353911.80
   7068 354240.45
   7070 354569.55
   7072 354898.20
   7074 355227.15
   7076 355556.40
   7078 355885.20
   7080 356213.55
   7082 356542.35
   7084 356871.45
   7086 357200.85
   7088 357529.05
   7090 357858.15
   7092 358186.95
   7094 358516.05
   7096 358844.70
   7098 359173.80
   7100 359502.30
   7102 359832.00
   7104 360160.35
   7106 360489.15
   7108 360818.10
   7110 361147.50
   7112 361476.30
   7114 361804.95
   7116 362134.35
   7118 362462.70
   7120 362792.10
   7122 363120.90
   7124 363449.40
   7126 363778.20
   7128 364107.30
   7130 364435.95
   7132 364764.90
   7134 365094.30
   7136 365422.95
   7138 365751.30
   7140 366079.95
   7142 366408.90
   7144 366738.15
   7146 367066.95
   7148 367395.30
   7150 367724.70
   7152 368053.65
   7154 368382.15
   7156 368710.80
   7158 369040.05
   7160 369368.55
   7162 369697.50
   7164 370025.85
   7166 370354.65
   7168 370683.60
   7170 371012.10
   7172 371341.05
   7174 371669.40
   7176 371998.20
   7178 372327.15
   7180 372655.65
   7182 372984.45
   7184 373312.65
   7186 373641.30
   7188 373970.25
   7190 374298.75
   7192 374627.40
   7194 374955.75
   7196 375285.00
   7198 375613.05
   7200 375941.40
   7202 376270.05
   7204 376599.00
   7206 376927.50
   7208 377255.40
   7210 377584.35
   7212 377912.85
   7214 378240.90
   7216 378569.25
   7218 378897.90
   7220 379225.95
   7222 379554.45
   7224 379883.10
   7226 380211.30
   7228 380539.05
   7230 380867.70
   7232 381196.05
   7234 381523.80
   7236 381852.75
   7238 382180.20
   7240 382509.00
   7242 382837.05
   7244 383164.65
   7246 383493.45
   7248 383820.75
   7250 384085.65
   7252 384349.80
   7254 384677.85
   7256 385005.60
   7258 385333.50
   7260 385661.70
   7262 385989.45
   7264 386316.60
   7266 386644.95
   7268 386972.70
   7270 387300.75
   7272 387628.35
   7274 387956.25
   7276 388283.55
   7278 388611.15
   7280 388939.20
   7282 389266.50
   7284 389594.40
   7286 389922.30
   7288 390249.75
   7290 390577.50
   7292 390904.95
   7294 391232.40
   7296 391560.30
   7298 391887.60
   7300 392215.20
   7302 392543.10
   7304 392870.55
   7306 393198.15
   7308 393525.30
   7310 393852.75
   7312 394180.50
   7314 394507.50
   7316 394835.10
   7318 395161.95
   7320 395490.00
   7322 395817.60
   7324 396144.60
   7326 396471.75
   7328 396799.35
   7330 397126.35
   7332 397453.65
   7334 397780.35
   7336 398108.25
   7338 398434.80
   7340 398762.40
   7342 399089.55
   7344 399415.95
   7346 399743.55
   7348 400070.70
   7350 400397.25
   7352 400724.85
   7354 401051.10
   7356 401378.55
   7358 401705.40
   7360 402032.55
   7362 402358.95
   7364 402685.80
   7366 403012.95
   7368 403339.50
   7370 403666.50
   7372 403993.65
   7374 404320.20
   7376 404646.15
   7378 404973.30
   7380 405299.85
   7382 405626.70
   7384 405952.95
   7386 406279.50
   7388 406606.35
   7390 406932.45
   7392 407259.15
   7394 407584.95
   7396 407912.25
   7398 408237.90
   7400 408564.60
   7402 408890.85
   7404 409217.40
   7406 409543.35
   7408 409869.45
   7410 410196.00
   7412 410521.80
   7414 410848.05
   7416 411173.55
   7418 411500.25
   7420 411825.60
   7422 412152.00
   7424 412477.80
   7426 412803.90
   7428 413129.55
   7430 413455.20
   7432 413781.30
   7434 414106.65
   7436 414432.45
   7438 414758.40
   7440 415083.75
   7442 415409.55
   7444 415735.50
   7446 416060.85
   7448 416386.35
   7450 416711.40
   7452 417037.65
   7454 417362.25
   7456 417688.20
   7458 418013.25
   7460 418338.90
   7462 418663.80
   7464 418988.85
   7466 419314.20
   7468 419639.10
   7470 419964.30
   7472 420289.50
   7474 420614.25
   7476 420939.30
   7478 421264.50
   7480 421589.10
   7482 421914.15
   7484 422238.45
   7486 422563.80
   7488 422887.80
   7490 423212.85
   7492 423537.30
   7494 423862.20
   7496 424187.10
   7498 424511.55
   7500 424835.25
   7502 425160.15
   7504 425484.30
   7506 425809.05
   7508 426132.90
   7510 426457.05
   7512 426781.50
   7514 427105.35
   7516 427429.35
   7518 427753.65
   7520 428077.35
   7522 428401.20
   7524 428725.50
   7526 429049.05
   7528 429372.90
   7530 429696.90
   7532 430020.45
   7534 430344.15
   7536 430668.15
   7538 430991.40
   7540 431314.95
   7542 431637.90
   7544 431962.05
   7546 432285.45
   7548 432608.25
   7550 432931.20
   7552 433254.60
   7554 433578.15
   7556 433900.95
   7558 434224.20
   7560 434547.60
   7562 434870.40
   7564 435193.50
   7566 435515.70
   7568 435838.35
   7570 436161.15
   7572 436484.25
   7574 436806.75
   7576 437129.40
   7578 437451.45
   7580 437773.80
   7582 438096.30
   7584 438419.10
   7586 438741.30
   7588 439063.65
   7590 439386.30
   7592 439708.20
   7594 440029.50
   7596 440351.85
   7598 440673.60
   7600 440995.65
   7602 441318.00
   7604 441639.60
   7606 441961.50
   7608 442282.65
   7610 442605.00
   7612 442925.70
   7614 443247.60
   7616 443568.90
   7618 443890.20
   7620 444212.10
   7622 444532.95
   7624 444854.25
   7626 445175.85
   7628 445496.70
   7630 445817.70
   7632 446138.10
   7634 446459.70
   7636 446780.70
   7638 447100.80
   7640 447422.10
   7642 447742.80
   7644 448062.75
   7646 448384.05
   7648 448703.40
   7650 449024.10
   7652 449345.10
   7654 449665.35
   7656 449984.70
   7658 450305.55
   7660 450625.50
   7662 450945.75
   7664 451265.25
   7666 451585.05
   7668 451905.00
   7670 452224.35
   7672 452544.90
   7674 452863.80
   7676 453183.75
   7678 453503.10
   7680 453822.60
   7682 454142.40
   7684 454461.45
   7686 454780.80
   7688 455099.25
   7690 455419.20
   7692 455737.20
   7694 456056.55
   7696 456375.00
   7698 456694.80
   7700 457012.80
   7702 457332.30
   7704 457649.70
   7706 457968.60
   7708 458287.50
   7710 458605.80
   7712 458924.40
   7714 459242.10
   7716 459560.10
   7718 459878.40
   7720 460196.85
   7722 460514.55
   7724 460832.55
   7726 461149.80
   7728 461468.25
   7730 461784.90
   7732 462102.90
   7734 462421.05
   7736 462738.45
   7738 463055.10
   7740 463372.95
   7742 463690.05
   7744 464007.45
   7746 464323.95
   7748 464640.90
   7750 464894.55
   7752 465148.35
   7754 465464.85
   7756 465781.50
   7758 466097.40
   7760 466414.50
   7762 466730.85
   7764 467046.60
   7766 467363.40
   7768 467679.60
   7770 467995.95
   7772 468311.70
   7774 468627.45
   7776 468943.50
   7778 469259.85
   7780 469575.45
   7782 469891.20
   7784 470206.35
   7786 470522.55
   7788 470838.15
   7790 471152.85
   7792 471468.90
   7794 471784.05
   7796 472098.60
   7798 472414.20
   7800 472729.20
   7802 473044.35
   7804 473359.80
   7806 473674.35
   7808 473989.35
   7810 474304.50
   7812 474618.75
   7814 474933.30
   7816 475248.15
   7818 475562.10
   7820 475876.35
   7822 476190.90
   7824 476505.60
   7826 476819.40
   7828 477133.65
   7830 477448.20
   7832 477761.70
   7834 478075.50
   7836 478389.60
   7838 478702.95
   7840 479016.45
   7842 479330.25
   7844 479644.20
   7846 479957.40
   7848 480270.75
   7850 480584.55
   7852 480897.30
   7854 481210.50
   7856 481523.70
   7858 481836.30
   7860 482150.10
   7862 482461.95
   7864 482775.30
   7866 483088.65
   7868 483400.20
   7870 483713.10
   7872 484026.15
   7874 484338.45
   7876 484650.00
   7878 484962.75
   7880 485274.60
   7882 485586.75
   7884 485899.20
   7886 486210.75
   7888 486522.45
   7890 486834.45
   7892 487146.75
   7894 487458.15
   7896 487769.85
   7898 488080.65
   7900 488392.80
   7902 488704.05
   7904 489014.55
   7906 489326.25
   7908 489637.20
   7910 489948.30
   7912 490258.65
   7914 490570.20
   7916 490881.00
   7918 491191.80
   7920 491502.00
   7922 491812.50
   7924 492123.00
   7926 492432.75
   7928 492743.70
   7930 493052.85
   7932 493363.20
   7934 493673.85
   7936 493983.75
   7938 494293.80
   7940 494602.80
   7942 494912.25
   7944 495222.00
   7946 495531.75
   7948 495841.80
   7950 496151.10
   7952 496460.40
   7954 496768.95
   7956 497077.80
   7958 497386.80
   7960 497696.10
   7962 498004.50
   7964 498314.10
   7966 498621.75
   7968 498930.90
   7970 499239.15
   7972 499547.40
   7974 499856.10
   7976 500163.75
   7978 500472.75
   7980 500779.80
   7982 501088.35
   7984 501395.85
   7986 501703.65
   7988 502011.45
   7990 502318.65
   7992 502626.90
   7994 502934.55
   7996 503241.15
   7998 503549.10
   8000 503856.15
   8002 504162.30
   8004 504469.95
   8006 504776.55
   8008 505083.30
   8010 505390.35
   8012 505696.50
   8014 506002.95
   8016 506309.55
   8018 506616.30
   8020 506922.30
   8022 507228.30
   8024 507534.75
   8026 507840.15
   8028 508145.85
   8030 508451.70
   8032 508757.85
   8034 509062.80
   8036 509369.55
   8038 509674.05
   8040 509979.90
   8042 510284.85
   8044 510589.95
   8046 510895.35
   8048 511199.70
   8050 511504.35
   8052 511809.30
   8054 512114.40
   8056 512418.45
   8058 512722.95
   8060 513027.45
   8062 513332.25
   8064 513636.15
   8066 513940.35
   8068 514244.70
   8070 514548.00
   8072 514851.60
   8074 515155.35
   8076 515459.40
   8078 515762.40
   8080 516065.85
   8082 516369.30
   8084 516671.85
   8086 516975.60
   8088 517278.75
   8090 517581.90
   8092 517884.15
   8094 518186.70
   8096 518489.40
   8098 518792.25
   8100 519094.05
   8102 519396.30
   8104 519698.70
   8106 520001.25
   8108 520302.90
   8110 520604.85
   8112 520906.80
   8114 521209.05
   8116 521510.25
   8118 521811.90
   8120 522113.55
   8122 522414.30
   8124 522715.35
   8126 523016.40
   8128 523317.90
   8130 523618.20
   8132 523920.00
   8134 524219.70
   8136 524520.75
   8138 524820.90
   8140 525122.25
   8142 525421.50
   8144 525722.25
   8146 526021.95
   8148 526321.95
   8150 526621.95
   8152 526922.10
   8154 527221.65
   8156 527521.20
   8158 527821.05
   8160 528119.85
   8162 528418.80
   8164 528718.05
   8166 529017.30
   8168 529315.80
   8170 529614.30
   8172 529913.25
   8174 530212.20
   8176 530510.25
   8178 530808.30
   8180 531106.80
   8182 531405.45
   8184 531703.20
   8186 532000.95
   8188 532299.00
   8190 532597.35
   8192 532894.50
   8194 533191.95
   8196 533489.70
   8198 533786.25
   8200 534084.30
   8202 534381.45
   8204 534678.60
   8206 534974.85
   8208 535271.25
   8210 535567.95
   8212 535864.80
   8214 536160.60
   8216 536457.90
   8218 536754.00
   8220 537049.20
   8222 537345.90
   8224 537641.55
   8226 537937.35
   8228 538233.30
   8230 538528.35
   8232 538824.60
   8234 539118.75
   8236 539414.40
   8238 539710.20
   8240 540004.95
   8242 540299.85
   8244 540593.70
   8246 540889.05
   8248 541183.35
   8250 541417.20
   8252 541651.05
   8254 541944.75
   8256 542238.60
   8258 542532.45
   8260 542826.75
   8262 543119.85
   8264 543413.25
   8266 543706.80
   8268 544000.65
   8270 544294.50
   8272 544587.60
   8274 544880.70
   8276 545172.90
   8278 545466.30
   8280 545759.10
   8282 546051.90
   8284 546344.55
   8286 546636.60
   8288 546928.65
   8290 547221.00
   8292 547513.50
   8294 547805.10
   8296 548096.70
   8298 548388.60
   8300 548680.65
   8302 548971.80
   8304 549262.95
   8306 549554.55
   8308 549846.15
   8310 550137.75
   8312 550428.75
   8314 550719.75
   8316 551010.90
   8318 551301.00
   8320 551591.40
   8322 551881.95
   8324 552172.65
   8326 552463.50
   8328 552753.45
   8330 553043.55
   8332 553333.80
   8334 553623.15
   8336 553913.70
   8338 554203.35
   8340 554491.80
   8342 554781.90
   8344 555070.80
   8346 555360.15
   8348 555649.50
   8350 555938.85
   8352 556227.30
   8354 556516.05
   8356 556804.80
   8358 557092.65
   8360 557381.85
   8362 557670.00
   8364 557958.30
   8366 558246.90
   8368 558534.45
   8370 558822.15
   8372 559110.00
   8374 559398.00
   8376 559684.95
   8378 559972.20
   8380 560259.60
   8382 560547.15
   8384 560834.85
   8386 561121.65
   8388 561408.45
   8390 561695.40
   8392 561981.45
   8394 562268.85
   8396 562555.20
   8398 562841.85
   8400 563127.30
   8402 563414.10
   8404 563700.00
   8406 563986.05
   8408 564270.90
   8410 564557.40
   8412 564842.70
   8414 565128.30
   8416 565413.75
   8418 565698.30
   8420 565983.15
   8422 566268.15
   8424 566553.30
   8426 566838.75
   8428 567122.85
   8430 567407.10
   8432 567691.80
   8434 567975.45
   8436 568260.45
   8438 568544.25
   8440 568828.35
   8442 569111.10
   8444 569395.65
   8446 569678.85
   8448 569962.35
   8450 570246.15
   8452 570528.75
   8454 570812.70
   8456 571095.75
   8458 571377.60
   8460 571660.80
   8462 571942.95
   8464 572225.40
   8466 572508.00
   8468 572790.60
   8470 573072.30
   8472 573355.35
   8474 573637.35
   8476 573918.30
   8478 574200.60
   8480 574481.85
   8482 574763.25
   8484 575044.80
   8486 575325.30
   8488 575607.30
   8490 575887.95
   8492 576169.05
   8494 576448.80
   8496 576730.20
   8498 577010.40
   8500 577290.75
   8502 577571.40
   8504 577850.85
   8506 578131.80
   8508 578411.55
   8510 578690.10
   8512 578970.30
   8514 579250.65
   8516 579529.95
   8518 579809.25
   8520 580087.35
   8522 580367.10
   8524 580645.80
   8526 580924.65
   8528 581203.50
   8530 581482.50
   8532 581760.45
   8534 582038.55
   8536 582316.80
   8538 582595.35
   8540 582872.70
   8542 583150.20
   8544 583427.85
   8546 583705.80
   8548 583983.75
   8550 584260.65
   8552 584537.55
   8554 584814.90
   8556 585092.25
   8558 585368.55
   8560 585644.70
   8562 585921.30
   8564 586198.20
   8566 586474.95
   8568 586750.80
   8570 587026.80
   8572 587302.80
   8574 587578.80
   8576 587854.05
   8578 588129.30
   8580 588404.70
   8582 588680.40
   8584 588956.10
   8586 589230.60
   8588 589505.40
   8590 589780.35
   8592 590055.45
   8594 590329.50
   8596 590603.40
   8598 590877.75
   8600 591153.45
   8602 591426.60
   8604 591700.20
   8606 591975.15
   8608 592247.55
   8610 592521.45
   8612 592795.35
   8614 593068.35
   8616 593341.35
   8618 593614.65
   8620 593886.75
   8622 594160.20
   8624 594432.75
   8626 594705.15
   8628 594977.85
   8630 595249.35
   8632 595522.50
   8634 595794.15
   8636 596066.10
   8638 596337.15
   8640 596609.25
   8642 596880.45
   8644 597151.80
   8646 597423.30
   8648 597694.80
   8650 597965.25
   8652 598235.70
   8654 598506.45
   8656 598777.35
   8658 599047.20
   8660 599318.40
   8662 599588.55
   8664 599858.55
   8666 600127.35
   8668 600397.95
   8670 600667.35
   8672 600936.75
   8674 601206.45
   8676 601474.80
   8678 601744.65
   8680 602013.30
   8682 602282.25
   8684 602551.20
   8686 602819.25
   8688 603088.50
   8690 603356.70
   8692 603624.75
   8694 603893.25
   8696 604160.55
   8698 604428.00
   8700 604695.45
   8702 604963.20
   8704 605230.95
   8706 605497.65
   8708 605765.85
   8710 606032.85
   8712 606298.50
   8714 606565.65
   8716 606831.75
   8718 607099.20
   8720 607364.25
   8722 607630.65
   8724 607897.35
   8726 608162.70
   8728 608428.35
   8730 608694.15
   8732 608959.80
   8734 609224.55
   8736 609490.65
   8738 609755.55
   8740 610020.75
   8742 610284.60
   8744 610549.95
   8746 610814.10
   8748 611078.40
   8750 611285.40
   8752 611492.25
   8754 611755.65
   8756 612019.20
   8758 612284.10
   8760 612546.45
   8762 612810.45
   8764 613073.10
   8766 613337.40
   8768 613600.50
   8770 613862.10
   8772 614125.50
   8774 614387.70
   8776 614650.05
   8778 614912.40
   8780 615174.90
   8782 615437.70
   8784 615699.15
   8786 615960.75
   8788 616222.65
   8790 616484.55
   8792 616746.75
   8794 617007.75
   8796 617268.75
   8798 617529.75
   8800 617791.20
   8802 618051.30
   8804 618312.90
   8806 618573.30
   8808 618834.00
   8810 619093.20
   8812 619354.05
   8814 619613.70
   8816 619873.50
   8818 620133.45
   8820 620393.55
   8822 620652.45
   8824 620912.70
   8826 621171.75
   8828 621431.25
   8830 621690.60
   8832 621948.75
   8834 622207.20
   8836 622466.85
   8838 622725.60
   8840 622983.00
   8842 623242.05
   8844 623499.60
   8846 623757.45
   8848 624015.45
   8850 624273.45
   8852 624530.55
   8854 624788.85
   8856 625046.10
   8858 625303.35
   8860 625559.55
   8862 625816.95
   8864 626073.30
   8866 626329.80
   8868 626586.45
   8870 626843.40
   8872 627100.35
   8874 627355.95
   8876 627611.70
   8878 627867.75
   8880 628123.80
   8882 628378.65
   8884 628635.00
   8886 628890.15
   8888 629145.45
   8890 629400.75
   8892 629655.00
   8894 629910.60
   8896 630165.15
   8898 630419.70
   8900 630674.40
   8902 630927.75
   8904 631182.75
   8906 631436.40
   8908 631690.50
   8910 631944.45
   8912 632197.20
   8914 632451.45
   8916 632704.50
   8918 632957.55
   8920 633211.05
   8922 633464.40
   8924 633716.55
   8926 633968.85
   8928 634222.50
   8930 634473.75
   8932 634726.50
   8934 634978.05
   8936 635230.95
   8938 635482.65
   8940 635734.65
   8942 635986.35
   8944 636237.15
   8946 636489.45
   8948 636740.55
   8950 636991.65
   8952 637241.55
   8954 637492.65
   8956 637742.70
   8958 637994.40
   8960 638243.40
   8962 638493.90
   8964 638744.55
   8966 638994.00
   8968 639244.80
   8970 639494.40
   8972 639744.15
   8974 639992.70
   8976 640242.60
   8978 640491.45
   8980 640740.30
   8982 640989.30
   8984 641238.30
   8986 641486.10
   8988 641735.70
   8990 641983.65
   8992 642231.90
   8994 642480.15
   8996 642727.20
   8998 642975.90
   9000 643223.25
   9002 643470.60
   9004 643718.25
   9006 643964.55
   9008 644212.20
   9010 644458.80
   9012 644705.55
   9014 644952.30
   9016 645199.35
   9018 645444.90
   9020 645691.95
   9022 645937.80
   9024 646183.95
   9026 646430.10
   9028 646674.90
   9030 646921.35
   9032 647166.30
   9034 647411.40
   9036 647656.80
   9038 647902.20
   9040 648146.55
   9042 648390.90
   9044 648636.60
   9046 648879.75
   9048 649124.25
   9050 649369.05
   9052 649612.50
   9054 649857.45
   9056 650101.20
   9058 650343.75
   9060 650587.50
   9062 650831.70
   9064 651074.40
   9066 651317.40
   9068 651560.40
   9070 651803.55
   9072 652045.20
   9074 652287.00
   9076 652530.60
   9078 652772.85
   9080 653013.90
   9082 653256.15
   9084 653498.70
   9086 653739.75
   9088 653981.25
   9090 654222.60
   9092 654464.25
   9094 654704.55
   9096 654946.35
   9098 655186.95
   9100 655427.25
   9102 655668.30
   9104 655907.55
   9106 656148.45
   9108 656388.15
   9110 656628.00
   9112 656867.70
   9114 657107.70
   9116 657346.35
   9118 657586.65
   9120 657825.45
   9122 658064.55
   9124 658303.80
   9126 658543.05
   9128 658780.80
   9130 659018.85
   9132 659257.05
   9134 659495.40
   9136 659733.60
   9138 659972.25
   9140 660209.25
   9142 660446.55
   9144 660684.00
   9146 660921.30
   9148 661159.20
   9150 661396.80
   9152 661633.20
   9154 661869.60
   9156 662106.30
   9158 662343.00
   9160 662579.85
   9162 662815.35
   9164 663050.85
   9166 663288.00
   9168 663522.45
   9170 663758.40
   9172 663994.50
   9174 664229.10
   9176 664464.15
   9178 664698.75
   9180 664933.80
   9182 665169.00
   9184 665404.20
   9186 665638.20
   9188 665872.20
   9190 666106.35
