# near-IR sky background 0.9-5.6um
# 1.6mm H2O, sec z = 2.0, middle of night (low OH)
#  
# Modification of original spectrum from Tom Geballe
# 22Aug00 - converted to units of nm from um : Phil Puxley
#
#  Wavelength    Flux density
#  (nm)  (ph/sec/nm/arcsec2/m2)

   900.0     4.61523
   900.5     5.47564
   901.0     4.24396
   901.5     3.13757
   902.0     3.11814
   902.5     3.12802
   903.0      3.1673
   903.5     3.49923
   904.0     3.82958
   904.5     3.90536
   905.0     4.23747
   905.5     4.02655
   906.0     3.44384
   906.5     3.18804
   907.0     3.10797
   907.5     3.08157
   908.0      3.1154
   908.5     3.12222
   909.0     3.23393
   909.5     3.35612
   910.0     3.41807
   910.5     3.49272
   911.0     3.32587
   911.5     3.18295
   912.0     3.14324
   912.5     3.14822
   913.0     3.11064
   913.5      3.0471
   914.0     3.07913
   914.5     3.16744
   915.0     3.18107
   915.5     3.10425
   916.0     3.13995
   916.5     3.25222
   917.0     3.20092
   917.5     3.08587
   918.0     3.08596
   918.5      3.1373
   919.0      3.1672
   919.5     3.16943
   920.0     3.17818
   920.5     3.20469
   921.0     3.19829
   921.5     3.18401
   922.0       3.188
   922.5     3.20997
   923.0     3.20596
   923.5     3.18385
   924.0     3.16569
   924.5     3.15676
   925.0     3.15359
   925.5      3.1648
   926.0     3.16736
   926.5     3.16711
   927.0     3.17444
   927.5     3.14054
   928.0     3.07647
   928.5     3.05314
   929.0     3.04967
   929.5     3.00579
   930.0     3.04919
   930.5     4.85184
   931.0     8.20672
   931.5     9.74255
   932.0     6.42336
   932.5     7.16995
   933.0     5.22826
   933.5     3.35508
   934.0     3.45431
   934.5     2.65768
   935.0     2.41695
   935.5     2.41051
   936.0     2.30631
   936.5     2.45328
   937.0     3.42028
   937.5     7.60545
   938.0    10.55972
   938.5      7.6192
   939.0     6.06588
   939.5     4.85286
   940.0     3.78547
   940.5     4.32367
   941.0     3.48692
   941.5     3.37051
   942.0     4.63926
   942.5      4.7132
   943.0      2.9609
   943.5     4.58707
   944.0     7.16387
   944.5     5.66032
   945.0     4.22215
   945.5     3.84326
   946.0     4.68001
   946.5     3.84377
   947.0     3.10372
   947.5      6.7692
   948.0    10.28024
   948.5     5.52138
   949.0     2.79588
   949.5     2.63006
   950.0     3.37821
   950.5     4.47518
   951.0     4.08543
   951.5     4.92702
   952.0     6.80728
   952.5     5.98797
   953.0     3.60966
   953.5     2.78276
   954.0     2.74629
   954.5     2.64899
   955.0     3.41391
   955.5     4.11084
   956.0     3.40357
   956.5     4.36126
   957.0     5.62554
   957.5     4.56214
   958.0      2.8379
   958.5      2.7241
   959.0     2.65741
   959.5     2.63578
   960.0     2.76155
   960.5      3.1903
   961.0     3.57298
   961.5     3.44768
   962.0     3.79471
   962.5      4.1239
   963.0     3.46894
   963.5     2.88365
   964.0     2.79453
   964.5     2.78135
   965.0     2.86481
   965.5      3.0674
   966.0     3.19597
   966.5      3.5034
   967.0       4.156
   967.5     4.13145
   968.0     5.05699
   968.5     6.07691
   969.0     5.20926
   969.5      5.7156
   970.0     7.78862
   970.5     6.48093
   971.0     5.04731
   971.5     6.82695
   972.0     8.98241
   972.5     7.93517
   973.0      4.6069
   973.5     4.10051
   974.0     5.22993
   974.5         4.3
   975.0     3.15149
   975.5     2.95499
   976.0      2.8811
   976.5     2.90309
   977.0     2.95118
   977.5     2.96813
   978.0     2.94217
   978.5     4.86014
   979.0     15.0939
   979.5      22.537
   980.0     16.4146
   980.5     7.82519
   981.0     5.67735
   981.5      5.1326
   982.0     4.00863
   982.5     3.28248
   983.0     3.51568
   983.5      3.2742
   984.0     3.01197
   984.5     4.74383
   985.0     6.90285
   985.5     5.38729
   986.0     3.29151
   986.5     3.16907
   987.0     9.85786
   987.5      16.632
   988.0     9.67863
   988.5     3.07226
   989.0     4.27085
   989.5     6.85279
   990.0     6.75881
   990.5     4.18236
   991.0     6.74207
   991.5     14.0122
   992.0     13.4385
   992.5     6.20029
   993.0     2.95543
   993.5     3.09859
   994.0     6.82308
   994.5     15.8071
   995.0     18.0211
   995.5     13.3359
   996.0     16.2292
   996.5     16.1672
   997.0     8.46479
   997.5     5.14295
   998.0     4.08238
   998.5     3.01197
   999.0     2.94062
   999.5     3.35398
  1000.0      4.3635
  1000.5     4.62072
  1001.0     12.4003
  1001.5      21.986
  1002.0      14.685
  1002.5     8.06658
  1003.0     8.08733
  1003.5     5.01689
  1004.0     4.04082
  1004.5      5.1067
  1005.0     4.22215
  1005.5     3.69944
  1006.0     5.45794
  1006.5     6.71502
  1007.0     5.85563
  1007.5     4.68445
  1008.0     8.34823
  1008.5     12.9411
  1009.0     7.99774
  1009.5     3.20393
  1010.0     4.78681
  1010.5     6.78538
  1011.0     5.32769
  1011.5     3.27407
  1012.0     7.17585
  1012.5      13.458
  1013.0     10.8914
  1013.5      5.0207
  1014.0     3.20367
  1014.5     3.44349
  1015.0     5.70305
  1015.5     8.70984
  1016.0     8.41645
  1016.5     6.35428
  1017.0     13.0873
  1017.5     20.7779
  1018.0     13.3837
  1018.5    10.47637
  1019.0     16.6715
  1019.5     15.0996
  1020.0      9.8776
  1020.5     11.6132
  1021.0     19.9536
  1021.5     23.5268
  1022.0     12.1513
  1022.5     6.99827
  1023.0      12.336
  1023.5     11.4899
  1024.0     5.56462
  1024.5     2.84012
  1025.0     2.83916
  1025.5     2.83718
  1026.0     2.83841
  1026.5      2.9269
  1027.0     3.56443
  1027.5     4.05183
  1028.0     6.24595
  1028.5     35.5419
  1029.0     63.3177
  1029.5     42.0927
  1030.0     21.3707
  1030.5      12.755
  1031.0     8.11369
  1031.5      7.4278
  1032.0     4.25895
  1032.5     3.86085
  1033.0     4.62163
  1033.5       3.767
  1034.0     3.29676
  1034.5     8.95741
  1035.0     15.0508
  1035.5     9.68697
  1036.0     3.71145
  1036.5     3.00437
  1037.0     20.1861
  1037.5     40.0327
  1038.0     23.0982
  1038.5     4.24627
  1039.0     3.23787
  1039.5     10.2672
  1040.0     16.7982
  1040.5     9.39397
  1041.0     2.84054
  1041.5     19.5308
  1042.0     40.4783
  1042.5     26.1477
  1043.0     6.23769
  1043.5     2.97258
  1044.0     2.80629
  1044.5     4.13767
  1045.0     9.62118
  1045.5     12.4532
  1046.0     6.78806
  1046.5     11.8102
  1047.0     25.5117
  1047.5      20.178
  1048.0     6.80545
  1048.5     2.75293
  1049.0     2.75043
  1049.5     2.76653
  1050.0     2.79116
  1050.5     4.66721
  1051.0     7.72622
  1051.5     6.84224
  1052.0     6.66978
  1052.5     12.0749
  1053.0     12.6781
  1053.5     6.16147
  1054.0      2.7327
  1054.5     2.73098
  1055.0     2.72922
  1055.5     2.72744
  1056.0     2.72564
  1056.5     2.73259
  1057.0     3.84116
  1057.5     5.05851
  1058.0     4.31926
  1058.5     5.47372
  1059.0     7.03528
  1059.5     4.62685
  1060.0     2.72884
  1060.5     2.72448
  1061.0     2.71278
  1061.5      2.7056
  1062.0     2.70355
  1062.5     2.70136
  1063.0      2.6994
  1063.5     2.76157
  1064.0     3.11474
  1064.5     3.36142
  1065.0     3.60217
  1065.5     3.96921
  1066.0     3.34607
  1066.5     2.71466
  1067.0     2.68422
  1067.5     2.68086
  1068.0     2.83639
  1068.5      3.8502
  1069.0      5.1203
  1069.5     7.11136
  1070.0     9.43787
  1070.5     8.87425
  1071.0     12.3065
  1071.5     16.3741
  1072.0     12.2247
  1072.5     17.6653
  1073.0     27.7097
  1073.5     19.0098
  1074.0    10.46084
  1074.5     14.4401
  1075.0     25.7737
  1075.5     32.6202
  1076.0      15.852
  1076.5     2.75151
  1077.0     8.04606
  1077.5     13.5297
  1078.0     8.18721
  1078.5     2.80759
  1079.0     2.65572
  1079.5     2.66906
  1080.0       2.671
  1080.5     2.67373
  1081.0     2.64851
  1081.5     2.62504
  1082.0     2.62721
  1082.5      8.0723
  1083.0      51.227
  1083.5     85.5415
  1084.0      56.974
  1084.5     32.3782
  1085.0     17.1337
  1085.5     8.66956
  1086.0     12.3983
  1086.5     7.14043
  1087.0     2.94359
  1087.5      4.4569
  1088.0      5.5289
  1088.5      3.8949
  1089.0      4.0597
  1089.5     12.5475
  1090.0     18.8092
  1090.5    10.02224
  1091.0     2.88102
  1091.5     2.59589
  1092.0     25.0097
  1092.5     52.7009
  1093.0     36.0664
  1093.5     8.31437
  1094.0     2.62957
  1094.5     11.1661
  1095.0     22.0223
  1095.5      15.248
  1096.0     4.42975
  1096.5     2.84672
  1097.0     31.8937
  1097.5     62.7009
  1098.0     32.7009
  1098.5     3.73624
  1099.0     2.52557
  1099.5     2.50063
  1100.0     3.10761
  1100.5     11.3755
  1101.0     18.5281
  1101.5    10.27828
  1102.0     3.28371
  1102.5     22.9123
  1103.0     42.4243
  1103.5     22.2653
  1104.0     2.77603
  1104.5     2.46197
  1105.0      2.4851
  1105.5     2.47743
  1106.0     2.44296
  1106.5     4.64118
  1107.0     9.65906
  1107.5     9.54613
  1108.0     4.84809
  1108.5     11.9689
  1109.0     22.2522
  1109.5     12.3197
  1110.0     2.70469
  1110.5     2.38164
  1111.0     2.32982
  1111.5     2.34192
  1112.0     2.39887
  1112.5     2.35824
  1113.0     2.21615
  1113.5     3.57241
  1114.0     5.54781
  1114.5     4.42853
  1115.0     4.78615
  1115.5     7.91014
  1116.0     5.77158
  1116.5     2.01791
  1117.0     1.75733
  1117.5     1.96536
  1118.0     2.08978
  1118.5     1.97735
  1119.0     1.80446
  1119.5     1.82325
  1120.0     1.89444
  1120.5     1.96554
  1121.0     2.61491
  1121.5     2.77895
  1122.0     2.13611
  1122.5     2.14246
  1123.0      3.0985
  1123.5     2.22055
  1124.0     1.80344
  1124.5     2.03557
  1125.0     1.83618
  1125.5     1.42822
  1126.0     1.54639
  1126.5     1.85974
  1127.0     1.96316
  1127.5     1.78737
  1128.0     1.80729
  1128.5     3.00122
  1129.0     4.66253
  1129.5     6.36461
  1130.0     8.01355
  1130.5     11.2828
  1131.0     16.1881
  1131.5     16.2439
  1132.0     11.8067
  1132.5     18.0588
  1133.0     30.1267
  1133.5     11.8462
  1134.0     5.25643
  1134.5     5.65749
  1135.0     9.26606
  1135.5     30.0622
  1136.0     11.5963
  1136.5     2.05345
  1137.0     6.04496
  1137.5      10.912
  1138.0     10.8527
  1138.5     3.93695
  1139.0     2.28431
  1139.5     2.26071
  1140.0     2.08994
  1140.5     2.05461
  1141.0     1.96833
  1141.5     1.99429
  1142.0     2.07405
  1142.5     2.16437
  1143.0      5.1674
  1143.5      51.729
  1144.0     76.8896
  1144.5     43.3319
  1145.0     27.4725
  1145.5        18.9
  1146.0     7.04666
  1146.5     7.42055
  1147.0      9.3242
  1147.5     4.48483
  1148.0     2.31908
  1148.5     4.15986
  1149.0      5.0323
  1149.5     3.39459
  1150.0     3.16681
  1150.5     13.2459
  1151.0     17.0499
  1151.5     9.77413
  1152.0     2.58877
  1152.5     2.02849
  1153.0     6.43254
  1153.5     36.5489
  1154.0     51.3241
  1154.5     25.6361
  1155.0     2.32721
  1155.5     2.32593
  1156.0     13.0524
  1156.5     25.4317
  1157.0     15.0473
  1157.5     2.53276
  1158.0     2.13805
  1158.5     28.4808
  1159.0     58.0382
  1159.5     46.8211
  1160.0     11.2399
  1160.5     2.14935
  1161.0     2.21573
  1161.5     2.24449
  1162.0     6.29883
  1162.5     15.8334
  1163.0     19.9878
  1163.5     8.56255
  1164.0     2.39601
  1164.5      26.428
  1165.0     51.3878
  1165.5     30.0869
  1166.0     4.57058
  1166.5     2.25833
  1167.0     2.26852
  1167.5     2.28454
  1168.0     2.28184
  1168.5     2.28011
  1169.0     7.38869
  1169.5     13.6728
  1170.0     9.80252
  1170.5     3.41901
  1171.0     13.7092
  1171.5      28.689
  1172.0     18.0903
  1172.5     4.35124
  1173.0     2.26859
  1173.5     2.23032
  1174.0     2.18191
  1174.5     2.22772
  1175.0     2.26487
  1175.5     2.26208
  1176.0     2.29891
  1176.5     4.83636
  1177.0     7.76405
  1177.5      4.9846
  1178.0     4.33769
  1178.5     9.69659
  1179.0     11.8188
  1179.5     5.68602
  1180.0     2.24899
  1180.5      2.2758
  1181.0     2.25193
  1181.5     2.16756
  1182.0     2.10746
  1182.5      2.1819
  1183.0     2.25669
  1183.5     2.26454
  1184.0     2.22293
  1184.5     2.90004
  1185.0     3.83243
  1185.5     3.40766
  1186.0     3.81087
  1186.5      5.4351
  1187.0     4.43004
  1187.5     2.57549
  1188.0     2.14194
  1188.5     2.16913
  1189.0       2.214
  1189.5     2.23587
  1190.0     2.24004
  1190.5     2.22853
  1191.0     2.22855
  1191.5     2.23609
  1192.0     2.24128
  1192.5     2.24726
  1193.0     2.29309
  1193.5     2.51588
  1194.0     2.68888
  1194.5     2.73939
  1195.0     2.99503
  1195.5     2.79042
  1196.0     2.74723
  1196.5     5.15718
  1197.0     12.3173
  1197.5     15.7938
  1198.0     13.6813
  1198.5     20.1713
  1199.0     24.0314
  1199.5     16.4063
  1200.0     24.7088
  1200.5     40.0507
  1201.0     29.3595
  1201.5    10.02346
  1202.0     10.6017
  1202.5     37.7833
  1203.0     52.5658
  1203.5     25.2493
  1204.0     4.17039
  1204.5     2.32019
  1205.0     8.88675
  1205.5     17.4274
  1206.0     10.8282
  1206.5     2.94267
  1207.0      2.1716
  1207.5     2.16815
  1208.0     2.16781
  1208.5     2.17017
  1209.0      2.1647
  1209.5     2.16588
  1210.0     2.17595
  1210.5     2.18835
  1211.0     2.22081
  1211.5     31.4146
  1212.0     92.9367
  1212.5     93.0119
  1213.0      53.444
  1213.5     44.7823
  1214.0     25.1666
  1214.5     5.39128
  1215.0     10.9557
  1215.5     17.8044
  1216.0     9.68453
  1216.5     2.39178
  1217.0     2.61368
  1217.5     5.11055
  1218.0     7.17474
  1218.5     4.55455
  1219.0     11.3507
  1219.5     23.4258
  1220.0     16.2063
  1220.5     5.16879
  1221.0     3.52723
  1221.5     2.89451
  1222.0     5.16091
  1222.5     43.4863
  1223.0     78.7532
  1223.5     37.7496
  1224.0      2.3307
  1224.5     2.37992
  1225.0     9.04063
  1225.5     24.4781
  1226.0     26.7344
  1226.5     10.8576
  1227.0     2.14174
  1227.5     2.14541
  1228.0     30.7415
  1228.5     76.7941
  1229.0     62.5314
  1229.5     17.5143
  1230.0     2.16422
  1230.5     2.14921
  1231.0     2.14905
  1231.5     2.16781
  1232.0     13.6759
  1232.5     27.2483
  1233.0     16.3872
  1233.5     3.50372
  1234.0     2.14949
  1234.5     26.3801
  1235.0     60.0874
  1235.5     42.6705
  1236.0    10.04339
  1236.5     2.13376
  1237.0     2.13182
  1237.5     2.13128
  1238.0     2.13016
  1238.5     2.12871
  1239.0     2.13812
  1239.5     9.22983
  1240.0     17.5511
  1240.5     10.8125
  1241.0     2.90313
  1241.5      6.7155
  1242.0     24.5473
  1242.5     33.4411
  1243.0     15.0555
  1243.5     2.11671
  1244.0     2.11313
  1244.5     2.11165
  1245.0     2.11033
  1245.5     2.10898
  1246.0     2.10766
  1246.5     2.10586
  1247.0     2.10436
  1247.5     3.71555
  1248.0     7.47788
  1248.5     7.96957
  1249.0     4.16031
  1249.5     5.96104
  1250.0     13.7455
  1250.5     15.3724
  1251.0     12.7173
  1251.5     13.6772
  1252.0     14.1995
  1252.5     10.2775
  1253.0     4.79436
  1253.5     3.34053
  1254.0     7.41696
  1254.5     12.5488
  1255.0     14.3597
  1255.5     13.8004
  1256.0     11.6954
  1256.5     8.43177
  1257.0     7.37576
  1257.5     6.66769
  1258.0     4.19715
  1258.5     6.53215
  1259.0    10.14072
  1259.5      7.7599
  1260.0      6.7073
  1260.5     8.84183
  1261.0    10.12455
  1261.5    10.00045
  1262.0     12.8569
  1262.5     22.4441
  1263.0     33.8786
  1263.5     37.0699
  1264.0     33.8447
  1264.5     29.5653
  1265.0     25.0856
  1265.5     21.1692
  1266.0     13.3261
  1266.5     7.35155
  1267.0     9.05184
  1267.5     13.2387
  1268.0     22.6115
  1268.5     24.7142
  1269.0      23.252
  1269.5     31.0825
  1270.0     25.7693
  1270.5     20.3526
  1271.0     38.6177
  1271.5     60.8559
  1272.0     62.3505
  1272.5      55.777
  1273.0     45.2987
  1273.5     34.6454
  1274.0     21.7805
  1274.5     20.5888
  1275.0     21.6047
  1275.5     20.4868
  1276.0     26.6858
  1276.5     31.7235
  1277.0     18.8116
  1277.5     22.6416
  1278.0     44.6819
  1278.5     38.3659
  1279.0     13.9932
  1279.5     8.83892
  1280.0      34.248
  1280.5     54.5181
  1281.0      44.536
  1281.5     30.8032
  1282.0     28.7718
  1282.5     21.3134
  1283.0     16.9353
  1283.5      24.231
  1284.0     38.2193
  1284.5      62.413
  1285.0     78.9659
  1285.5     81.0792
  1286.0     76.4363
  1286.5     51.7329
  1287.0     17.7716
  1287.5     2.70118
  1288.0     2.00944
  1288.5     2.00916
  1289.0     2.01214
  1289.5     3.43849
  1290.0      63.394
  1290.5     128.968
  1291.0     71.6656
  1291.5     30.0365
  1292.0     47.5561
  1292.5     28.4594
  1293.0     5.89694
  1293.5     6.15862
  1294.0     14.2524
  1294.5     17.1474
  1295.0     7.99223
  1295.5     1.99137
  1296.0     2.32694
  1296.5     4.38092
  1297.0     6.99077
  1297.5     5.97371
  1298.0      14.637
  1298.5     26.8421
  1299.0     15.5008
  1299.5     2.97153
  1300.0     2.40899
  1300.5     3.11876
  1301.0      3.3775
  1301.5     33.9368
  1302.0     77.0214
  1302.5     53.9431
  1303.0     12.0831
  1303.5     1.90112
  1304.0     1.91739
  1304.5      8.7744
  1305.0     26.5544
  1305.5     28.7676
  1306.0     11.6008
  1306.5     1.87959
  1307.0     1.87771
  1307.5     2.66398
  1308.0     46.1431
  1308.5     98.6136
  1309.0     51.1417
  1309.5     3.52187
  1310.0      1.9055
  1310.5      1.9169
  1311.0     1.91064
  1311.5     1.90965
  1312.0     7.54106
  1312.5     21.4018
  1313.0     24.1884
  1313.5     9.72796
  1314.0     1.80753
  1314.5     1.84125
  1315.0     26.1472
  1315.5      61.054
  1316.0     48.7257
  1316.5     12.6145
  1317.0     1.82936
  1317.5     1.85796
  1318.0      1.8521
  1318.5     1.80913
  1319.0     1.80548
  1319.5     1.79894
  1320.0     1.77039
  1320.5     9.51739
  1321.0     19.2229
  1321.5     11.0195
  1322.0     2.66508
  1322.5     1.80415
  1323.0     15.8307
  1323.5     37.2063
  1324.0     25.2639
  1324.5     6.36475
  1325.0     1.82873
  1325.5      1.7968
  1326.0      1.8118
  1326.5     1.81188
  1327.0     1.77465
  1327.5     1.76916
  1328.0     1.72931
  1328.5     1.65729
  1329.0     1.65499
  1329.5     4.48374
  1330.0     8.60552
  1330.5     7.22547
  1331.0     2.83276
  1331.5     2.02074
  1332.0     9.40941
  1332.5     16.0165
  1333.0     9.89857
  1333.5     1.79851
  1334.0     1.60788
  1334.5     1.69024
  1335.0     1.71697
  1335.5     1.69003
  1336.0     1.61633
  1336.5     1.67273
  1337.0     1.64106
  1337.5     1.56889
  1338.0     1.61199
  1338.5     1.68355
  1339.0     1.67977
  1339.5     3.02042
  1340.0     4.34267
  1340.5     2.98931
  1341.0     1.90148
  1341.5      3.5023
  1342.0     7.22808
  1342.5     5.44166
  1343.0       2.365
  1343.5     1.58806
  1344.0     1.36389
  1344.5      1.3092
  1345.0     1.47174
  1345.5     1.50419
  1346.0     1.44766
  1346.5     1.40371
  1347.0       1.413
  1347.5     1.18304
  1348.0    0.903039
  1348.5    0.932214
  1349.0     1.15406
  1349.5     1.29497
  1350.0     1.08435
  1350.5    0.973875
  1351.0     1.53343
  1351.5      1.0973
  1352.0       1.098
  1352.5       1.233
  1353.0    0.944246
  1353.5    0.733402
  1354.0    0.598237
  1354.5    0.359028
  1355.0    0.299235
  1355.5    0.396644
  1356.0    0.501792
  1356.5    0.663969
  1357.0    0.515151
  1357.5    0.352817
  1358.0    0.377582
  1358.5     0.37135
  1359.0    0.360873
  1359.5    0.282349
  1360.0    0.320932
  1360.5    0.276618
  1361.0    0.119617
  1361.5    0.048225
  1362.0   0.0274692
  1362.5    0.108749
  1363.0    0.397265
  1363.5    0.564852
  1364.0    0.396351
  1364.5    0.129306
  1365.0   0.0917834
  1365.5    0.253666
  1366.0     3.19388
  1366.5     6.72151
  1367.0     4.05993
  1367.5     2.19981
  1368.0    0.367595
  1368.5    0.383572
  1369.0     5.46467
