# sky background 0.3-1.0um
# GREY optical sky - 80%ile conditions (day 11)
#AM=1.0
#
#derived from sky spectrum with constant slope to match assumed photometric background
#increasingly poor model at very bright sky (day14);  patched to near-IR background at 920nm
#
#1 March 2001 : Phil Puxley

#nm         phot/s/nm/arcsec^2/m^2
320.00                    0.0000
349.99                    0.0000
350.17                    2.2586
350.43                    2.2578
350.70                    2.2570
350.96                    2.2562
351.23                    2.2555
351.49                    2.2547
351.76                    2.2539
352.02                    2.2531
352.29                    2.2524
352.55                    2.2516
352.82                    2.2508
353.08                    2.2500
353.35                    2.2493
353.62                    2.2485
353.88                    2.2477
354.15                    2.2469
354.41                    2.2461
354.68                    2.2454
354.94                    2.2446
355.21                    2.2438
355.47                    2.2430
355.74                    2.2423
356.00                    2.2415
356.27                    2.2407
356.53                    2.2399
356.80                    2.2392
357.07                    2.2384
357.33                    2.2376
357.60                    2.2368
357.86                    2.2361
358.13                    2.2353
358.39                    2.2345
358.66                    2.2337
358.92                    2.2330
359.19                    2.2322
359.45                    2.2314
359.72                    2.2306
359.98                    2.2299
360.25                    2.2291
360.51                    2.2283
360.78                    2.2275
361.05                    2.2267
361.31                    2.2260
361.58                    2.2252
361.84                    2.2244
362.11                    2.2236
362.37                    2.2229
362.64                    2.2221
362.90                    2.2213
363.17                    2.2205
363.43                    2.2198
363.70                    2.2190
363.96                    2.2182
364.23                    2.2174
364.49                    2.2167
364.76                    2.2159
365.03                    2.2151
365.29                    2.2143
365.56                    2.2136
365.82                    2.2128
366.09                    2.2120
366.35                    2.2112
366.62                    2.2105
366.88                    2.2097
367.15                    2.2089
367.41                    2.2081
367.68                    2.2073
367.94                    2.2066
368.21                    2.2058
368.47                    2.2050
368.74                    2.2042
369.01                    2.2035
369.27                    2.2027
369.54                    2.2019
369.80                    2.2011
370.07                    2.2004
370.33                    2.1996
370.60                    2.1988
370.86                    2.1980
371.13                    2.1973
371.39                    2.1965
371.66                    2.1957
371.92                    2.1949
372.19                    2.1942
372.45                    2.1934
372.72                    2.1926
372.99                    2.1918
373.25                    2.1911
373.52                    2.1903
373.78                    2.1895
374.05                    2.1887
374.31                    2.1879
374.58                    2.1872
374.84                    2.1864
375.11                    2.1856
375.37                    2.1848
375.64                    2.1841
375.90                    2.1833
376.17                    2.1825
376.43                    2.1817
376.70                    2.1810
376.97                    2.1802
377.23                    2.1794
377.50                    2.1786
377.76                    2.1779
378.03                    2.1771
378.29                    2.1763
378.56                    2.1755
378.82                    2.1748
379.09                    2.1740
379.35                    2.1732
379.62                    2.1724
379.88                    2.1717
380.15                    2.1709
380.41                    2.1701
380.68                    2.1693
380.95                    2.1685
381.21                    2.1678
381.48                    2.1670
381.74                    2.1662
382.01                    2.1654
382.27                    2.1647
382.54                    2.1639
382.80                    2.1631
383.07                    2.1623
383.33                    2.1616
383.60                    2.1608
383.86                    2.1600
384.13                    2.1592
384.40                    2.1585
384.66                    2.1577
384.93                    2.1569
385.19                    2.1561
385.46                    2.1554
385.72                    2.1546
385.99                    2.1538
386.25                    2.1531
386.52                    2.1523
386.78                    2.1515
387.05                    2.1508
387.31                    2.1500
387.58                    2.1492
387.84                    2.1485
388.11                    2.1477
388.38                    2.1470
388.64                    2.1462
388.91                    2.1455
389.17                    2.1447
389.44                    2.1439
389.70                    2.1432
389.97                    2.1424
390.23                    2.1417
390.50                    2.1410
390.76                    2.1403
391.03                    2.1395
391.29                    2.1388
391.56                    2.1381
391.82                    2.1373
392.09                    2.1366
392.36                    2.1359
392.62                    2.1351
392.89                    2.1344
393.15                    2.1337
393.42                    2.1329
393.68                    2.1322
393.95                    2.1315
394.21                    2.1307
394.48                    2.1300
394.74                    2.1293
395.01                    2.1285
395.27                    2.1278
395.54                    2.1271
395.80                    2.1263
396.07                    2.1256
396.34                    2.1249
396.60                    2.1241
396.87                    2.1234
397.13                    2.1227
397.40                    2.1219
397.66                    2.1212
397.93                    2.1204
398.19                    2.1197
398.46                    2.1190
398.72                    2.1182
398.99                    2.1175
399.25                    2.1167
399.52                    2.1160
399.78                    2.1152
400.05                    2.1145
400.32                    2.1138
400.58                    2.1130
400.85                    2.1123
401.11                    2.1115
401.38                    2.1108
401.64                    2.1100
401.91                    2.1093
402.17                    2.1086
402.44                    2.1078
402.70                    2.1071
402.97                    2.1063
403.23                    2.1056
403.50                    2.1048
403.76                    2.1041
404.03                    2.1033
404.30                    2.1026
404.56                    2.1019
404.83                    2.1011
405.09                    2.1004
405.36                    2.0997
405.62                    2.0989
405.89                    2.0982
406.15                    2.0974
406.42                    2.0967
406.68                    2.0960
406.95                    2.0952
407.21                    2.0945
407.48                    2.0938
407.74                    2.0931
408.01                    2.0923
408.28                    2.0916
408.54                    2.0909
408.81                    2.0902
409.07                    2.0894
409.34                    2.0887
409.60                    2.0880
409.87                    2.0873
410.13                    2.0866
410.40                    2.0859
410.66                    2.0852
410.93                    2.0845
411.19                    2.0838
411.46                    2.0831
411.73                    2.0824
411.99                    2.0817
412.26                    2.0810
412.52                    2.0803
412.79                    2.0796
413.05                    2.0789
413.32                    2.0782
413.58                    2.0775
413.85                    2.0768
414.11                    2.0761
414.38                    2.0754
414.64                    2.0747
414.91                    2.0740
415.17                    2.0733
415.44                    2.0726
415.71                    2.0719
415.97                    2.0712
416.24                    2.0705
416.50                    2.0698
416.77                    2.0691
417.03                    2.0684
417.30                    2.0677
417.56                    2.0669
417.83                    2.0662
418.09                    2.0655
418.36                    2.0648
418.62                    2.0641
418.89                    2.0634
419.15                    2.0626
419.42                    2.0619
419.69                    2.0612
419.95                    2.0605
420.22                    2.0597
420.48                    2.0590
420.75                    2.0582
421.01                    2.0575
421.28                    2.0568
421.54                    2.0560
421.81                    2.0553
422.07                    2.0545
422.34                    2.0538
422.60                    2.0530
422.87                    2.0523
423.13                    2.0516
423.40                    2.0508
423.67                    2.0501
423.93                    2.0493
424.20                    2.0486
424.46                    2.0479
424.73                    2.0471
424.99                    2.0464
425.26                    2.0456
425.52                    2.0449
425.79                    2.0442
426.05                    2.0434
426.32                    2.0427
426.58                    2.0419
426.85                    2.0412
427.11                    2.0405
427.38                    2.0397
427.65                    2.0390
427.91                    2.0383
428.18                    2.0375
428.44                    2.0368
428.71                    2.0361
428.97                    2.0353
429.24                    2.0346
429.50                    2.0339
429.77                    2.0331
430.03                    2.0324
430.30                    2.0317
430.56                    2.0310
430.83                    2.0303
431.09                    2.0295
431.36                    2.0288
431.63                    2.0281
431.89                    2.0274
432.16                    2.0267
432.42                    2.0259
432.69                    2.0252
432.95                    2.0245
433.22                    2.0238
433.48                    2.0231
433.75                    2.0224
434.01                    2.0216
434.28                    2.0209
434.54                    2.0202
434.81                    2.0195
435.07                    2.0188
435.34                    2.0181
435.61                    2.0174
435.87                    2.0167
436.14                    2.0160
436.40                    2.0153
436.67                    2.0145
436.93                    2.0138
437.20                    2.0131
437.46                    2.0124
437.73                    2.0117
437.99                    2.0110
438.26                    2.0103
438.52                    2.0096
438.79                    2.0089
439.05                    2.0083
439.32                    2.0076
439.59                    2.0069
439.85                    2.0062
440.12                    2.0055
440.38                    2.0048
440.65                    2.0042
440.91                    2.0035
441.18                    2.0028
441.44                    2.0022
441.71                    2.0015
441.97                    2.0008
442.24                    2.0002
442.50                    1.9995
442.77                    1.9988
443.04                    1.9982
443.30                    1.9975
443.57                    1.9968
443.83                    1.9962
444.10                    1.9955
444.36                    1.9948
444.63                    1.9941
444.89                    1.9935
445.16                    1.9928
445.42                    1.9921
445.69                    1.9914
445.95                    1.9908
446.22                    1.9901
446.48                    1.9894
446.75                    1.9887
447.02                    1.9881
447.28                    1.9874
447.55                    1.9867
447.81                    1.9860
448.08                    1.9853
448.34                    1.9846
448.61                    1.9839
448.87                    1.9833
449.14                    1.9826
449.40                    1.9819
449.67                    1.9812
449.93                    1.9805
450.20                    1.9798
450.46                    1.9791
450.73                    1.9784
451.00                    1.9776
451.26                    1.9769
451.53                    1.9762
451.79                    1.9755
452.06                    1.9748
452.32                    1.9741
452.59                    1.9734
452.85                    1.9726
453.12                    1.9719
453.38                    1.9712
453.65                    1.9705
453.91                    1.9698
454.18                    1.9691
454.44                    1.9684
454.71                    1.9677
454.98                    1.9670
455.24                    1.9662
455.51                    1.9655
455.77                    1.9648
456.04                    1.9641
456.30                    1.9634
456.57                    1.9627
456.83                    1.9620
457.10                    1.9613
457.36                    1.9606
457.63                    1.9599
457.89                    1.9592
458.16                    1.9585
458.42                    1.9578
458.69                    1.9571
458.96                    1.9564
459.22                    1.9557
459.49                    1.9550
459.75                    1.9543
460.02                    1.9536
460.28                    1.9529
460.55                    1.9522
460.81                    1.9515
461.08                    1.9508
461.34                    1.9501
461.61                    1.9494
461.87                    1.9487
462.14                    1.9480
462.40                    1.9473
462.67                    1.9466
462.94                    1.9460
463.20                    1.9453
463.47                    1.9446
463.73                    1.9439
464.00                    1.9432
464.26                    1.9425
464.53                    1.9418
464.79                    1.9412
465.06                    1.9405
465.32                    1.9398
465.59                    1.9391
465.85                    1.9384
466.12                    1.9378
466.38                    1.9371
466.65                    1.9364
466.92                    1.9357
467.18                    1.9351
467.45                    1.9344
467.71                    1.9337
467.98                    1.9330
468.24                    1.9324
468.51                    1.9317
468.77                    1.9311
469.04                    1.9304
469.30                    1.9297
469.57                    1.9291
469.83                    1.9284
470.10                    1.9278
470.37                    1.9272
470.63                    1.9265
470.90                    1.9259
471.16                    1.9253
471.43                    1.9246
471.69                    1.9240
471.96                    1.9234
472.22                    1.9228
472.49                    1.9221
472.75                    1.9215
473.02                    1.9209
473.28                    1.9202
473.55                    1.9196
473.81                    1.9189
474.08                    1.9183
474.35                    1.9177
474.61                    1.9170
474.88                    1.9164
475.14                    1.9157
475.41                    1.9151
475.67                    1.9145
475.94                    1.9138
476.20                    1.9132
476.47                    1.9125
476.73                    1.9119
477.00                    1.9112
477.26                    1.9105
477.53                    1.9099
477.79                    1.9092
478.06                    1.9086
478.33                    1.9079
478.59                    1.9072
478.86                    1.9065
479.12                    1.9059
479.39                    1.9052
479.65                    1.9045
479.92                    1.9038
480.18                    1.9031
480.45                    1.9024
480.71                    1.9017
480.98                    1.9010
481.24                    1.9002
481.51                    1.8995
481.77                    1.8988
482.04                    1.8981
482.31                    1.8974
482.57                    1.8966
482.84                    1.8959
483.10                    1.8952
483.37                    1.8945
483.63                    1.8938
483.90                    1.8931
484.16                    1.8923
484.43                    1.8916
484.69                    1.8909
484.96                    1.8902
485.22                    1.8895
485.49                    1.8888
485.75                    1.8881
486.02                    1.8873
486.29                    1.8866
486.55                    1.8859
486.82                    1.8852
487.08                    1.8845
487.35                    1.8838
487.61                    1.8831
487.88                    1.8824
488.14                    1.8817
488.41                    1.8810
488.67                    1.8803
488.94                    1.8796
489.20                    1.8789
489.47                    1.8782
489.73                    1.8775
490.00                    1.8768
490.27                    1.8761
490.53                    1.8754
490.80                    1.8747
491.06                    1.8740
491.33                    1.8733
491.59                    1.8727
491.86                    1.8720
492.12                    1.8713
492.39                    1.8706
492.65                    1.8699
492.92                    1.8692
493.18                    1.8686
493.45                    1.8679
493.71                    1.8672
493.98                    1.8665
494.25                    1.8658
494.51                    1.8651
494.78                    1.8645
495.04                    1.8638
495.31                    1.8631
495.57                    1.8624
495.84                    1.8617
496.10                    1.8610
496.37                    1.8604
496.63                    1.8597
496.90                    1.8590
497.16                    1.8583
497.43                    1.8576
497.70                    1.8570
497.96                    1.8563
498.23                    1.8556
498.49                    1.8549
498.76                    1.8543
499.02                    1.8536
499.29                    1.8529
499.55                    1.8522
499.82                    1.8515
500.08                    1.8509
500.35                    1.8502
500.61                    1.8495
500.88                    1.8489
501.14                    1.8482
501.41                    1.8475
501.68                    1.8469
501.94                    1.8462
502.21                    1.8455
502.47                    1.8449
502.74                    1.8442
503.00                    1.8435
503.27                    1.8429
503.53                    1.8422
503.80                    1.8415
504.06                    1.8409
504.33                    1.8402
504.59                    1.8395
504.86                    1.8389
505.12                    1.8382
505.39                    1.8375
505.66                    1.8369
505.92                    1.8362
506.19                    1.8355
506.45                    1.8349
506.72                    1.8342
506.98                    1.8335
507.25                    1.8329
507.51                    1.8322
