# sky background 0.3-1.0um
# GREY optical sky - 80%ile conditions (day 11)
# AM=1.5
#
#derived from sky spectrum with constant slope to match assumed photometric background
#increasingly poor model at very bright sky (day14);  patched to near-IR background at 920nm
#
#1 March 2001 : Phil Puxley

#nm         phot/s/nm/arcsec^2/m^2
320.00                    0.0000
349.99                    0.0000
350.17                    2.7874
350.43                    2.7866
350.70                    2.7857
350.96                    2.7849
351.23                    2.7841
351.49                    2.7832
351.76                    2.7824
352.02                    2.7815
352.29                    2.7807
352.55                    2.7799
352.82                    2.7790
353.08                    2.7782
353.35                    2.7773
353.62                    2.7765
353.88                    2.7756
354.15                    2.7748
354.41                    2.7740
354.68                    2.7731
354.94                    2.7723
355.21                    2.7714
355.47                    2.7706
355.74                    2.7698
356.00                    2.7689
356.27                    2.7681
356.53                    2.7672
356.80                    2.7664
357.07                    2.7655
357.33                    2.7647
357.60                    2.7639
357.86                    2.7630
358.13                    2.7622
358.39                    2.7613
358.66                    2.7605
358.92                    2.7597
359.19                    2.7588
359.45                    2.7580
359.72                    2.7571
359.98                    2.7563
360.25                    2.7555
360.51                    2.7546
360.78                    2.7538
361.05                    2.7529
361.31                    2.7521
361.58                    2.7512
361.84                    2.7504
362.11                    2.7496
362.37                    2.7487
362.64                    2.7479
362.90                    2.7470
363.17                    2.7462
363.43                    2.7454
363.70                    2.7445
363.96                    2.7437
364.23                    2.7428
364.49                    2.7420
364.76                    2.7412
365.03                    2.7403
365.29                    2.7395
365.56                    2.7386
365.82                    2.7378
366.09                    2.7369
366.35                    2.7361
366.62                    2.7353
366.88                    2.7344
367.15                    2.7336
367.41                    2.7327
367.68                    2.7319
367.94                    2.7311
368.21                    2.7302
368.47                    2.7294
368.74                    2.7285
369.01                    2.7277
369.27                    2.7269
369.54                    2.7260
369.80                    2.7252
370.07                    2.7243
370.33                    2.7235
370.60                    2.7226
370.86                    2.7218
371.13                    2.7210
371.39                    2.7201
371.66                    2.7193
371.92                    2.7184
372.19                    2.7176
372.45                    2.7168
372.72                    2.7159
372.99                    2.7151
373.25                    2.7142
373.52                    2.7134
373.78                    2.7125
374.05                    2.7117
374.31                    2.7109
374.58                    2.7100
374.84                    2.7092
375.11                    2.7083
375.37                    2.7075
375.64                    2.7067
375.90                    2.7058
376.17                    2.7050
376.43                    2.7041
376.70                    2.7033
376.97                    2.7025
377.23                    2.7016
377.50                    2.7008
377.76                    2.6999
378.03                    2.6991
378.29                    2.6982
378.56                    2.6974
378.82                    2.6966
379.09                    2.6957
379.35                    2.6949
379.62                    2.6940
379.88                    2.6932
380.15                    2.6924
380.41                    2.6915
380.68                    2.6907
380.95                    2.6898
381.21                    2.6890
381.48                    2.6882
381.74                    2.6873
382.01                    2.6865
382.27                    2.6856
382.54                    2.6848
382.80                    2.6839
383.07                    2.6831
383.33                    2.6823
383.60                    2.6814
383.86                    2.6806
384.13                    2.6797
384.40                    2.6789
384.66                    2.6781
384.93                    2.6772
385.19                    2.6764
385.46                    2.6755
385.72                    2.6747
385.99                    2.6739
386.25                    2.6730
386.52                    2.6722
386.78                    2.6714
387.05                    2.6706
387.31                    2.6697
387.58                    2.6689
387.84                    2.6681
388.11                    2.6672
388.38                    2.6664
388.64                    2.6656
388.91                    2.6648
389.17                    2.6640
389.44                    2.6631
389.70                    2.6623
389.97                    2.6615
390.23                    2.6607
390.50                    2.6599
390.76                    2.6591
391.03                    2.6583
391.29                    2.6575
391.56                    2.6567
391.82                    2.6559
392.09                    2.6551
392.36                    2.6543
392.62                    2.6535
392.89                    2.6527
393.15                    2.6520
393.42                    2.6512
393.68                    2.6504
393.95                    2.6496
394.21                    2.6488
394.48                    2.6480
394.74                    2.6472
395.01                    2.6464
395.27                    2.6456
395.54                    2.6448
395.80                    2.6440
396.07                    2.6432
396.34                    2.6424
396.60                    2.6416
396.87                    2.6408
397.13                    2.6400
397.40                    2.6392
397.66                    2.6384
397.93                    2.6376
398.19                    2.6367
398.46                    2.6359
398.72                    2.6351
398.99                    2.6343
399.25                    2.6335
399.52                    2.6327
399.78                    2.6319
400.05                    2.6310
400.32                    2.6303
400.58                    2.6295
400.85                    2.6287
401.11                    2.6279
401.38                    2.6271
401.64                    2.6262
401.91                    2.6254
402.17                    2.6246
402.44                    2.6238
402.70                    2.6230
402.97                    2.6222
403.23                    2.6214
403.50                    2.6206
403.76                    2.6198
404.03                    2.6190
404.30                    2.6182
404.56                    2.6173
404.83                    2.6165
405.09                    2.6157
405.36                    2.6149
405.62                    2.6141
405.89                    2.6133
406.15                    2.6125
406.42                    2.6117
406.68                    2.6109
406.95                    2.6101
407.21                    2.6093
407.48                    2.6085
407.74                    2.6078
408.01                    2.6070
408.28                    2.6062
408.54                    2.6054
408.81                    2.6046
409.07                    2.6038
409.34                    2.6030
409.60                    2.6022
409.87                    2.6015
410.13                    2.6007
410.40                    2.5999
410.66                    2.5992
410.93                    2.5984
411.19                    2.5976
411.46                    2.5969
411.73                    2.5961
411.99                    2.5954
412.26                    2.5946
412.52                    2.5938
412.79                    2.5931
413.05                    2.5923
413.32                    2.5916
413.58                    2.5908
413.85                    2.5900
414.11                    2.5893
414.38                    2.5885
414.64                    2.5877
414.91                    2.5870
415.17                    2.5862
415.44                    2.5854
415.71                    2.5846
415.97                    2.5839
416.24                    2.5831
416.50                    2.5823
416.77                    2.5816
417.03                    2.5808
417.30                    2.5800
417.56                    2.5792
417.83                    2.5784
418.09                    2.5777
418.36                    2.5769
418.62                    2.5761
418.89                    2.5753
419.15                    2.5745
419.42                    2.5737
419.69                    2.5730
419.95                    2.5722
420.22                    2.5714
420.48                    2.5705
420.75                    2.5697
421.01                    2.5689
421.28                    2.5681
421.54                    2.5673
421.81                    2.5665
422.07                    2.5657
422.34                    2.5649
422.60                    2.5641
422.87                    2.5633
423.13                    2.5625
423.40                    2.5617
423.67                    2.5609
423.93                    2.5600
424.20                    2.5592
424.46                    2.5584
424.73                    2.5576
424.99                    2.5568
425.26                    2.5560
425.52                    2.5552
425.79                    2.5544
426.05                    2.5536
426.32                    2.5528
426.58                    2.5520
426.85                    2.5512
427.11                    2.5504
427.38                    2.5496
427.65                    2.5488
427.91                    2.5480
428.18                    2.5472
428.44                    2.5464
428.71                    2.5456
428.97                    2.5448
429.24                    2.5440
429.50                    2.5432
429.77                    2.5424
430.03                    2.5416
430.30                    2.5408
430.56                    2.5401
430.83                    2.5393
431.09                    2.5385
431.36                    2.5377
431.63                    2.5369
431.89                    2.5361
432.16                    2.5354
432.42                    2.5346
432.69                    2.5338
432.95                    2.5330
433.22                    2.5322
433.48                    2.5314
433.75                    2.5307
434.01                    2.5299
434.28                    2.5291
434.54                    2.5283
434.81                    2.5275
435.07                    2.5268
435.34                    2.5260
435.61                    2.5252
435.87                    2.5244
436.14                    2.5237
436.40                    2.5229
436.67                    2.5221
436.93                    2.5214
437.20                    2.5206
437.46                    2.5198
437.73                    2.5191
437.99                    2.5183
438.26                    2.5175
438.52                    2.5168
438.79                    2.5160
439.05                    2.5152
439.32                    2.5145
439.59                    2.5137
439.85                    2.5130
440.12                    2.5122
440.38                    2.5115
440.65                    2.5108
440.91                    2.5100
441.18                    2.5093
441.44                    2.5086
441.71                    2.5078
441.97                    2.5071
442.24                    2.5064
442.50                    2.5057
442.77                    2.5049
443.04                    2.5042
443.30                    2.5034
443.57                    2.5027
443.83                    2.5020
444.10                    2.5012
444.36                    2.5005
444.63                    2.4998
444.89                    2.4990
445.16                    2.4983
445.42                    2.4975
445.69                    2.4968
445.95                    2.4961
446.22                    2.4953
446.48                    2.4946
446.75                    2.4938
447.02                    2.4931
447.28                    2.4923
447.55                    2.4916
447.81                    2.4908
448.08                    2.4901
448.34                    2.4893
448.61                    2.4886
448.87                    2.4878
449.14                    2.4871
449.40                    2.4863
449.67                    2.4856
449.93                    2.4848
450.20                    2.4840
450.46                    2.4832
450.73                    2.4825
451.00                    2.4817
451.26                    2.4809
451.53                    2.4801
451.79                    2.4794
452.06                    2.4786
452.32                    2.4778
452.59                    2.4770
452.85                    2.4762
453.12                    2.4755
453.38                    2.4747
453.65                    2.4739
453.91                    2.4731
454.18                    2.4724
454.44                    2.4716
454.71                    2.4708
454.98                    2.4700
455.24                    2.4693
455.51                    2.4685
455.77                    2.4677
456.04                    2.4669
456.30                    2.4662
456.57                    2.4654
456.83                    2.4646
457.10                    2.4638
457.36                    2.4631
457.63                    2.4623
457.89                    2.4615
458.16                    2.4608
458.42                    2.4600
458.69                    2.4592
458.96                    2.4585
459.22                    2.4577
459.49                    2.4569
459.75                    2.4562
460.02                    2.4554
460.28                    2.4546
460.55                    2.4539
460.81                    2.4531
461.08                    2.4524
461.34                    2.4516
461.61                    2.4509
461.87                    2.4501
462.14                    2.4493
462.40                    2.4486
462.67                    2.4478
462.94                    2.4471
463.20                    2.4463
463.47                    2.4456
463.73                    2.4448
464.00                    2.4441
464.26                    2.4433
464.53                    2.4426
464.79                    2.4418
465.06                    2.4411
465.32                    2.4403
465.59                    2.4396
465.85                    2.4388
466.12                    2.4381
466.38                    2.4373
466.65                    2.4366
466.92                    2.4359
467.18                    2.4351
467.45                    2.4344
467.71                    2.4337
467.98                    2.4329
468.24                    2.4322
468.51                    2.4315
468.77                    2.4307
469.04                    2.4300
469.30                    2.4293
469.57                    2.4286
469.83                    2.4278
470.10                    2.4271
470.37                    2.4264
470.63                    2.4258
470.90                    2.4251
471.16                    2.4244
471.43                    2.4237
471.69                    2.4230
471.96                    2.4223
472.22                    2.4216
472.49                    2.4209
472.75                    2.4202
473.02                    2.4195
473.28                    2.4188
473.55                    2.4181
473.81                    2.4174
474.08                    2.4167
474.35                    2.4160
474.61                    2.4153
474.88                    2.4146
475.14                    2.4139
475.41                    2.4132
475.67                    2.4124
475.94                    2.4117
476.20                    2.4110
476.47                    2.4103
476.73                    2.4096
477.00                    2.4089
477.26                    2.4081
477.53                    2.4074
477.79                    2.4067
478.06                    2.4060
478.33                    2.4052
478.59                    2.4045
478.86                    2.4037
479.12                    2.4030
479.39                    2.4023
479.65                    2.4015
479.92                    2.4008
480.18                    2.4000
480.45                    2.3992
480.71                    2.3984
480.98                    2.3976
481.24                    2.3969
481.51                    2.3961
481.77                    2.3953
482.04                    2.3945
482.31                    2.3937
482.57                    2.3929
482.84                    2.3922
483.10                    2.3914
483.37                    2.3906
483.63                    2.3898
483.90                    2.3890
484.16                    2.3882
484.43                    2.3875
484.69                    2.3867
484.96                    2.3859
485.22                    2.3851
485.49                    2.3843
485.75                    2.3836
486.02                    2.3828
486.29                    2.3820
486.55                    2.3812
486.82                    2.3805
487.08                    2.3797
487.35                    2.3789
487.61                    2.3781
487.88                    2.3774
488.14                    2.3766
488.41                    2.3758
488.67                    2.3750
488.94                    2.3743
489.20                    2.3735
489.47                    2.3727
489.73                    2.3720
490.00                    2.3712
490.27                    2.3705
490.53                    2.3697
490.80                    2.3690
491.06                    2.3682
491.33                    2.3675
491.59                    2.3667
491.86                    2.3660
492.12                    2.3652
492.39                    2.3645
492.65                    2.3637
492.92                    2.3630
493.18                    2.3622
493.45                    2.3615
493.71                    2.3607
493.98                    2.3600
494.25                    2.3592
494.51                    2.3585
494.78                    2.3577
495.04                    2.3570
495.31                    2.3562
495.57                    2.3555
495.84                    2.3547
496.10                    2.3540
496.37                    2.3533
496.63                    2.3525
496.90                    2.3518
497.16                    2.3510
497.43                    2.3503
497.70                    2.3495
497.96                    2.3488
498.23                    2.3480
498.49                    2.3473
498.76                    2.3466
499.02                    2.3458
499.29                    2.3451
499.55                    2.3443
499.82                    2.3436
500.08                    2.3429
500.35                    2.3421
500.61                    2.3414
500.88                    2.3407
501.14                    2.3399
501.41                    2.3392
501.68                    2.3385
501.94                    2.3377
502.21                    2.3370
502.47                    2.3363
502.74                    2.3355
503.00                    2.3348
503.27                    2.3341
503.53                    2.3333
503.80                    2.3326
504.06                    2.3319
504.33                    2.3311
504.59                    2.3304
504.86                    2.3297
505.12                    2.3289
505.39                    2.3282
505.66                    2.3275
505.92                    2.3268
506.19                    2.3260
506.45                    2.3253
506.72                    2.3246
506.98                    2.3238
507.25                    2.3231
507.51                    2.3224
