# sky background 0.3-1.0um
# DARK optical sky - 50%ile conditions (day 7)
# AM=1.5
#
#derived from sky spectrum with constant slope to match assumed photometric background
#increasingly poor model at very bright sky (day14);  patched to near-IR background at 920nm
#
#1 March 2001 : Phil Puxley

#nm         phot/s/nm/arcsec^2/m^2
320.00                    0.0000
349.99                    0.0000
350.17                    0.7572
350.43                    0.7571
350.70                    0.7569
350.96                    0.7568
351.23                    0.7566
351.49                    0.7565
351.76                    0.7563
352.02                    0.7561
352.29                    0.7560
352.55                    0.7558
352.82                    0.7557
353.08                    0.7555
353.35                    0.7553
353.62                    0.7552
353.88                    0.7550
354.15                    0.7549
354.41                    0.7547
354.68                    0.7546
354.94                    0.7544
355.21                    0.7542
355.47                    0.7541
355.74                    0.7539
356.00                    0.7538
356.27                    0.7536
356.53                    0.7535
356.80                    0.7533
357.07                    0.7531
357.33                    0.7530
357.60                    0.7528
357.86                    0.7527
358.13                    0.7525
358.39                    0.7523
358.66                    0.7522
358.92                    0.7520
359.19                    0.7519
359.45                    0.7517
359.72                    0.7516
359.98                    0.7514
360.25                    0.7512
360.51                    0.7511
360.78                    0.7509
361.05                    0.7508
361.31                    0.7506
361.58                    0.7504
361.84                    0.7503
362.11                    0.7501
362.37                    0.7500
362.64                    0.7498
362.90                    0.7497
363.17                    0.7495
363.43                    0.7493
363.70                    0.7492
363.96                    0.7490
364.23                    0.7489
364.49                    0.7487
364.76                    0.7486
365.03                    0.7484
365.29                    0.7482
365.56                    0.7481
365.82                    0.7479
366.09                    0.7478
366.35                    0.7476
366.62                    0.7474
366.88                    0.7473
367.15                    0.7471
367.41                    0.7470
367.68                    0.7468
367.94                    0.7467
368.21                    0.7465
368.47                    0.7463
368.74                    0.7462
369.01                    0.7460
369.27                    0.7459
369.54                    0.7457
369.80                    0.7456
370.07                    0.7454
370.33                    0.7452
370.60                    0.7451
370.86                    0.7449
371.13                    0.7448
371.39                    0.7446
371.66                    0.7444
371.92                    0.7443
372.19                    0.7441
372.45                    0.7440
372.72                    0.7438
372.99                    0.7437
373.25                    0.7435
373.52                    0.7433
373.78                    0.7432
374.05                    0.7430
374.31                    0.7429
374.58                    0.7427
374.84                    0.7426
375.11                    0.7424
375.37                    0.7422
375.64                    0.7421
375.90                    0.7419
376.17                    0.7418
376.43                    0.7416
376.70                    0.7414
376.97                    0.7413
377.23                    0.7411
377.50                    0.7410
377.76                    0.7408
378.03                    0.7407
378.29                    0.7405
378.56                    0.7403
378.82                    0.7402
379.09                    0.7400
379.35                    0.7399
379.62                    0.7397
379.88                    0.7396
380.15                    0.7394
380.41                    0.7392
380.68                    0.7391
380.95                    0.7389
381.21                    0.7388
381.48                    0.7386
381.74                    0.7384
382.01                    0.7383
382.27                    0.7381
382.54                    0.7380
382.80                    0.7378
383.07                    0.7377
383.33                    0.7375
383.60                    0.7373
383.86                    0.7372
384.13                    0.7370
384.40                    0.7369
384.66                    0.7367
384.93                    0.7366
385.19                    0.7364
385.46                    0.7363
385.72                    0.7361
385.99                    0.7360
386.25                    0.7358
386.52                    0.7357
386.78                    0.7355
387.05                    0.7354
387.31                    0.7352
387.58                    0.7351
387.84                    0.7349
388.11                    0.7348
388.38                    0.7346
388.64                    0.7345
388.91                    0.7344
389.17                    0.7342
389.44                    0.7341
389.70                    0.7340
389.97                    0.7338
390.23                    0.7337
390.50                    0.7336
390.76                    0.7335
391.03                    0.7334
391.29                    0.7333
391.56                    0.7332
391.82                    0.7330
392.09                    0.7329
392.36                    0.7328
392.62                    0.7327
392.89                    0.7326
393.15                    0.7325
393.42                    0.7324
393.68                    0.7322
393.95                    0.7321
394.21                    0.7320
394.48                    0.7319
394.74                    0.7318
395.01                    0.7317
395.27                    0.7316
395.54                    0.7314
395.80                    0.7313
396.07                    0.7312
396.34                    0.7311
396.60                    0.7310
396.87                    0.7308
397.13                    0.7307
397.40                    0.7306
397.66                    0.7305
397.93                    0.7304
398.19                    0.7303
398.46                    0.7301
398.72                    0.7300
398.99                    0.7299
399.25                    0.7298
399.52                    0.7296
399.78                    0.7295
400.05                    0.7293
400.32                    0.7293
400.58                    0.7291
400.85                    0.7290
401.11                    0.7289
401.38                    0.7288
401.64                    0.7286
401.91                    0.7285
402.17                    0.7284
402.44                    0.7283
402.70                    0.7281
402.97                    0.7280
403.23                    0.7279
403.50                    0.7277
403.76                    0.7276
404.03                    0.7275
404.30                    0.7274
404.56                    0.7273
404.83                    0.7271
405.09                    0.7270
405.36                    0.7269
405.62                    0.7268
405.89                    0.7267
406.15                    0.7265
406.42                    0.7264
406.68                    0.7263
406.95                    0.7262
407.21                    0.7261
407.48                    0.7260
407.74                    0.7259
408.01                    0.7258
408.28                    0.7256
408.54                    0.7255
408.81                    0.7254
409.07                    0.7253
409.34                    0.7252
409.60                    0.7251
409.87                    0.7250
410.13                    0.7249
410.40                    0.7249
410.66                    0.7248
410.93                    0.7247
411.19                    0.7246
411.46                    0.7246
411.73                    0.7245
411.99                    0.7244
412.26                    0.7243
412.52                    0.7242
412.79                    0.7242
413.05                    0.7241
413.32                    0.7240
413.58                    0.7239
413.85                    0.7238
414.11                    0.7238
414.38                    0.7237
414.64                    0.7236
414.91                    0.7235
415.17                    0.7234
415.44                    0.7233
415.71                    0.7233
415.97                    0.7232
416.24                    0.7231
416.50                    0.7230
416.77                    0.7229
417.03                    0.7228
417.30                    0.7227
417.56                    0.7226
417.83                    0.7225
418.09                    0.7224
418.36                    0.7223
418.62                    0.7222
418.89                    0.7221
419.15                    0.7220
419.42                    0.7219
419.69                    0.7218
419.95                    0.7217
420.22                    0.7216
420.48                    0.7215
420.75                    0.7213
421.01                    0.7212
421.28                    0.7211
421.54                    0.7210
421.81                    0.7208
422.07                    0.7207
422.34                    0.7206
422.60                    0.7205
422.87                    0.7203
423.13                    0.7202
423.40                    0.7201
423.67                    0.7200
423.93                    0.7198
424.20                    0.7197
424.46                    0.7196
424.73                    0.7195
424.99                    0.7193
425.26                    0.7192
425.52                    0.7191
425.79                    0.7190
426.05                    0.7189
426.32                    0.7187
426.58                    0.7186
426.85                    0.7185
427.11                    0.7184
427.38                    0.7183
427.65                    0.7182
427.91                    0.7180
428.18                    0.7179
428.44                    0.7178
428.71                    0.7177
428.97                    0.7176
429.24                    0.7175
429.50                    0.7174
429.77                    0.7172
430.03                    0.7171
430.30                    0.7170
430.56                    0.7169
430.83                    0.7168
431.09                    0.7167
431.36                    0.7166
431.63                    0.7165
431.89                    0.7164
432.16                    0.7163
432.42                    0.7162
432.69                    0.7161
432.95                    0.7160
433.22                    0.7159
433.48                    0.7158
433.75                    0.7157
434.01                    0.7156
434.28                    0.7155
434.54                    0.7154
434.81                    0.7154
435.07                    0.7153
435.34                    0.7152
435.61                    0.7151
435.87                    0.7150
436.14                    0.7149
436.40                    0.7148
436.67                    0.7147
436.93                    0.7146
437.20                    0.7145
437.46                    0.7145
437.73                    0.7144
437.99                    0.7143
438.26                    0.7142
438.52                    0.7141
438.79                    0.7141
439.05                    0.7140
439.32                    0.7139
439.59                    0.7138
439.85                    0.7138
440.12                    0.7137
440.38                    0.7137
440.65                    0.7136
440.91                    0.7136
441.18                    0.7135
441.44                    0.7135
441.71                    0.7134
441.97                    0.7134
442.24                    0.7133
442.50                    0.7133
442.77                    0.7132
443.04                    0.7132
443.30                    0.7131
443.57                    0.7131
443.83                    0.7130
444.10                    0.7130
444.36                    0.7129
444.63                    0.7129
444.89                    0.7128
445.16                    0.7127
445.42                    0.7127
445.69                    0.7126
445.95                    0.7126
446.22                    0.7125
446.48                    0.7125
446.75                    0.7124
447.02                    0.7123
447.28                    0.7123
447.55                    0.7122
447.81                    0.7121
448.08                    0.7121
448.34                    0.7120
448.61                    0.7119
448.87                    0.7119
449.14                    0.7118
449.40                    0.7117
449.67                    0.7116
449.93                    0.7116
450.20                    0.7115
450.46                    0.7114
450.73                    0.7113
451.00                    0.7112
451.26                    0.7111
451.53                    0.7110
451.79                    0.7109
452.06                    0.7108
452.32                    0.7107
452.59                    0.7106
452.85                    0.7105
453.12                    0.7104
453.38                    0.7103
453.65                    0.7102
453.91                    0.7101
454.18                    0.7101
454.44                    0.7100
454.71                    0.7099
454.98                    0.7098
455.24                    0.7097
455.51                    0.7096
455.77                    0.7095
456.04                    0.7094
456.30                    0.7093
456.57                    0.7092
456.83                    0.7091
457.10                    0.7091
457.36                    0.7090
457.63                    0.7089
457.89                    0.7088
458.16                    0.7087
458.42                    0.7086
458.69                    0.7085
458.96                    0.7084
459.22                    0.7084
459.49                    0.7083
459.75                    0.7082
460.02                    0.7081
460.28                    0.7080
460.55                    0.7080
460.81                    0.7079
461.08                    0.7078
461.34                    0.7078
461.61                    0.7077
461.87                    0.7076
462.14                    0.7075
462.40                    0.7075
462.67                    0.7074
462.94                    0.7073
463.20                    0.7073
463.47                    0.7072
463.73                    0.7071
464.00                    0.7071
464.26                    0.7070
464.53                    0.7069
464.79                    0.7068
465.06                    0.7068
465.32                    0.7067
465.59                    0.7067
465.85                    0.7066
466.12                    0.7065
466.38                    0.7065
466.65                    0.7064
466.92                    0.7064
467.18                    0.7063
467.45                    0.7063
467.71                    0.7062
467.98                    0.7061
468.24                    0.7061
468.51                    0.7061
468.77                    0.7060
469.04                    0.7060
469.30                    0.7059
469.57                    0.7059
469.83                    0.7059
470.10                    0.7058
470.37                    0.7058
470.63                    0.7058
470.90                    0.7058
471.16                    0.7058
471.43                    0.7058
471.69                    0.7058
471.96                    0.7058
472.22                    0.7057
472.49                    0.7057
472.75                    0.7057
473.02                    0.7057
473.28                    0.7057
473.55                    0.7057
473.81                    0.7057
474.08                    0.7056
474.35                    0.7056
474.61                    0.7056
474.88                    0.7056
475.14                    0.7055
475.41                    0.7055
475.67                    0.7055
475.94                    0.7055
476.20                    0.7054
476.47                    0.7054
476.73                    0.7054
477.00                    0.7053
477.26                    0.7053
477.53                    0.7052
477.79                    0.7052
478.06                    0.7051
478.33                    0.7051
478.59                    0.7050
478.86                    0.7050
479.12                    0.7049
479.39                    0.7049
479.65                    0.7048
479.92                    0.7047
480.18                    0.7047
480.45                    0.7046
480.71                    0.7045
480.98                    0.7044
481.24                    0.7043
481.51                    0.7042
481.77                    0.7041
482.04                    0.7039
482.31                    0.7038
482.57                    0.7037
482.84                    0.7036
483.10                    0.7035
483.37                    0.7034
483.63                    0.7034
483.90                    0.7033
484.16                    0.7032
484.43                    0.7031
484.69                    0.7030
484.96                    0.7029
485.22                    0.7028
485.49                    0.7027
485.75                    0.7026
486.02                    0.7025
486.29                    0.7024
486.55                    0.7023
486.82                    0.7022
487.08                    0.7021
487.35                    0.7020
487.61                    0.7019
487.88                    0.7018
488.14                    0.7018
488.41                    0.7017
488.67                    0.7016
488.94                    0.7015
489.20                    0.7014
489.47                    0.7013
489.73                    0.7012
490.00                    0.7012
490.27                    0.7011
490.53                    0.7010
490.80                    0.7010
491.06                    0.7009
491.33                    0.7008
491.59                    0.7008
491.86                    0.7007
492.12                    0.7006
492.39                    0.7006
492.65                    0.7005
492.92                    0.7004
493.18                    0.7004
493.45                    0.7003
493.71                    0.7002
493.98                    0.7002
494.25                    0.7001
494.51                    0.7001
494.78                    0.7000
495.04                    0.6999
495.31                    0.6999
495.57                    0.6998
495.84                    0.6997
496.10                    0.6997
496.37                    0.6996
496.63                    0.6995
496.90                    0.6995
497.16                    0.6994
497.43                    0.6994
497.70                    0.6993
497.96                    0.6992
498.23                    0.6992
498.49                    0.6991
498.76                    0.6991
499.02                    0.6990
499.29                    0.6989
499.55                    0.6989
499.82                    0.6988
500.08                    0.6988
500.35                    0.6987
500.61                    0.6987
500.88                    0.6986
501.14                    0.6986
501.41                    0.6985
501.68                    0.6985
501.94                    0.6984
502.21                    0.6984
502.47                    0.6983
502.74                    0.6983
503.00                    0.6982
503.27                    0.6982
503.53                    0.6981
503.80                    0.6981
504.06                    0.6980
504.33                    0.6980
504.59                    0.6979
504.86                    0.6979
505.12                    0.6978
505.39                    0.6978
505.66                    0.6978
505.92                    0.6977
506.19                    0.6977
506.45                    0.6976
506.72                    0.6976
506.98                    0.6975
507.25                    0.6975
507.51                    0.6974
