# sky background 0.3-1.0um
# BRIGHT optical sky - 100%ile conditions (day 14)
# AM=1.5
#
#derived from sky spectrum with constant slope to match assumed photometric background
#increasingly poor model at very bright sky (day14);  patched to near-IR background at 920nm
#
#1 March 2001 : Phil Puxley

#nm         phot/s/nm/arcsec^2/m^2
320.00                    0.0000
349.99                    0.0000
350.17                   21.5069
350.43                   21.4983
350.70                   21.4898
350.96                   21.4812
351.23                   21.4726
351.49                   21.4641
351.76                   21.4555
352.02                   21.4469
352.29                   21.4384
352.55                   21.4298
352.82                   21.4213
353.08                   21.4127
353.35                   21.4041
353.62                   21.3956
353.88                   21.3870
354.15                   21.3784
354.41                   21.3699
354.68                   21.3613
354.94                   21.3527
355.21                   21.3442
355.47                   21.3356
355.74                   21.3271
356.00                   21.3185
356.27                   21.3099
356.53                   21.3014
356.80                   21.2928
357.07                   21.2842
357.33                   21.2757
357.60                   21.2671
357.86                   21.2586
358.13                   21.2500
358.39                   21.2414
358.66                   21.2329
358.92                   21.2243
359.19                   21.2157
359.45                   21.2072
359.72                   21.1986
359.98                   21.1900
360.25                   21.1815
360.51                   21.1729
360.78                   21.1644
361.05                   21.1558
361.31                   21.1472
361.58                   21.1387
361.84                   21.1301
362.11                   21.1215
362.37                   21.1130
362.64                   21.1044
362.90                   21.0959
363.17                   21.0873
363.43                   21.0787
363.70                   21.0702
363.96                   21.0616
364.23                   21.0530
364.49                   21.0445
364.76                   21.0359
365.03                   21.0273
365.29                   21.0188
365.56                   21.0102
365.82                   21.0017
366.09                   20.9931
366.35                   20.9845
366.62                   20.9760
366.88                   20.9674
367.15                   20.9588
367.41                   20.9503
367.68                   20.9417
367.94                   20.9332
368.21                   20.9246
368.47                   20.9160
368.74                   20.9075
369.01                   20.8989
369.27                   20.8903
369.54                   20.8818
369.80                   20.8732
370.07                   20.8646
370.33                   20.8561
370.60                   20.8475
370.86                   20.8390
371.13                   20.8304
371.39                   20.8218
371.66                   20.8133
371.92                   20.8047
372.19                   20.7961
372.45                   20.7876
372.72                   20.7790
372.99                   20.7705
373.25                   20.7619
373.52                   20.7533
373.78                   20.7448
374.05                   20.7362
374.31                   20.7276
374.58                   20.7191
374.84                   20.7105
375.11                   20.7019
375.37                   20.6934
375.64                   20.6848
375.90                   20.6763
376.17                   20.6677
376.43                   20.6591
376.70                   20.6506
376.97                   20.6420
377.23                   20.6334
377.50                   20.6249
377.76                   20.6163
378.03                   20.6078
378.29                   20.5992
378.56                   20.5906
378.82                   20.5821
379.09                   20.5735
379.35                   20.5649
379.62                   20.5564
379.88                   20.5478
380.15                   20.5392
380.41                   20.5307
380.68                   20.5221
380.95                   20.5136
381.21                   20.5050
381.48                   20.4964
381.74                   20.4879
382.01                   20.4793
382.27                   20.4707
382.54                   20.4622
382.80                   20.4536
383.07                   20.4451
383.33                   20.4365
383.60                   20.4279
383.86                   20.4194
384.13                   20.4108
384.40                   20.4022
384.66                   20.3937
384.93                   20.3851
385.19                   20.3765
385.46                   20.3680
385.72                   20.3594
385.99                   20.3509
386.25                   20.3423
386.52                   20.3338
386.78                   20.3252
387.05                   20.3167
387.31                   20.3081
387.58                   20.2996
387.84                   20.2910
388.11                   20.2825
388.38                   20.2739
388.64                   20.2654
388.91                   20.2568
389.17                   20.2483
389.44                   20.2398
389.70                   20.2312
389.97                   20.2227
390.23                   20.2142
390.50                   20.2057
390.76                   20.1971
391.03                   20.1886
391.29                   20.1801
391.56                   20.1716
391.82                   20.1631
392.09                   20.1545
392.36                   20.1460
392.62                   20.1375
392.89                   20.1290
393.15                   20.1205
393.42                   20.1119
393.68                   20.1034
393.95                   20.0949
394.21                   20.0864
394.48                   20.0779
394.74                   20.0693
395.01                   20.0608
395.27                   20.0523
395.54                   20.0438
395.80                   20.0353
396.07                   20.0267
396.34                   20.0182
396.60                   20.0097
396.87                   20.0012
397.13                   19.9926
397.40                   19.9841
397.66                   19.9756
397.93                   19.9671
398.19                   19.9585
398.46                   19.9500
398.72                   19.9415
398.99                   19.9330
399.25                   19.9244
399.52                   19.9159
399.78                   19.9074
400.05                   19.8988
400.32                   19.8903
400.58                   19.8818
400.85                   19.8733
401.11                   19.8647
401.38                   19.8562
401.64                   19.8477
401.91                   19.8391
402.17                   19.8306
402.44                   19.8221
402.70                   19.8135
402.97                   19.8050
403.23                   19.7965
403.50                   19.7879
403.76                   19.7794
404.03                   19.7709
404.30                   19.7623
404.56                   19.7538
404.83                   19.7453
405.09                   19.7368
405.36                   19.7282
405.62                   19.7197
405.89                   19.7112
406.15                   19.7027
406.42                   19.6942
406.68                   19.6856
406.95                   19.6771
407.21                   19.6686
407.48                   19.6601
407.74                   19.6516
408.01                   19.6431
408.28                   19.6345
408.54                   19.6260
408.81                   19.6175
409.07                   19.6090
409.34                   19.6005
409.60                   19.5920
409.87                   19.5835
410.13                   19.5750
410.40                   19.5665
410.66                   19.5580
410.93                   19.5496
411.19                   19.5411
411.46                   19.5326
411.73                   19.5241
411.99                   19.5156
412.26                   19.5071
412.52                   19.4987
412.79                   19.4902
413.05                   19.4817
413.32                   19.4732
413.58                   19.4647
413.85                   19.4562
414.11                   19.4477
414.38                   19.4392
414.64                   19.4308
414.91                   19.4223
415.17                   19.4138
415.44                   19.4053
415.71                   19.3968
415.97                   19.3883
416.24                   19.3798
416.50                   19.3713
416.77                   19.3628
417.03                   19.3543
417.30                   19.3458
417.56                   19.3373
417.83                   19.3288
418.09                   19.3203
418.36                   19.3118
418.62                   19.3033
418.89                   19.2948
419.15                   19.2863
419.42                   19.2778
419.69                   19.2693
419.95                   19.2608
420.22                   19.2522
420.48                   19.2437
420.75                   19.2352
421.01                   19.2266
421.28                   19.2181
421.54                   19.2096
421.81                   19.2011
422.07                   19.1925
422.34                   19.1840
422.60                   19.1755
422.87                   19.1669
423.13                   19.1584
423.40                   19.1499
423.67                   19.1413
423.93                   19.1328
424.20                   19.1243
424.46                   19.1158
424.73                   19.1072
424.99                   19.0987
425.26                   19.0902
425.52                   19.0817
425.79                   19.0731
426.05                   19.0646
426.32                   19.0561
426.58                   19.0476
426.85                   19.0390
427.11                   19.0305
427.38                   19.0220
427.65                   19.0135
427.91                   19.0049
428.18                   18.9964
428.44                   18.9879
428.71                   18.9794
428.97                   18.9709
429.24                   18.9623
429.50                   18.9538
429.77                   18.9453
430.03                   18.9368
430.30                   18.9283
430.56                   18.9198
430.83                   18.9113
431.09                   18.9028
431.36                   18.8943
431.63                   18.8858
431.89                   18.8772
432.16                   18.8687
432.42                   18.8602
432.69                   18.8517
432.95                   18.8432
433.22                   18.8347
433.48                   18.8262
433.75                   18.8177
434.01                   18.8092
434.28                   18.8007
434.54                   18.7922
434.81                   18.7837
435.07                   18.7752
435.34                   18.7667
435.61                   18.7582
435.87                   18.7497
436.14                   18.7412
436.40                   18.7327
436.67                   18.7242
436.93                   18.7158
437.20                   18.7073
437.46                   18.6988
437.73                   18.6903
437.99                   18.6818
438.26                   18.6733
438.52                   18.6648
438.79                   18.6563
439.05                   18.6479
439.32                   18.6394
439.59                   18.6309
439.85                   18.6224
440.12                   18.6140
440.38                   18.6055
440.65                   18.5971
440.91                   18.5886
441.18                   18.5802
441.44                   18.5717
441.71                   18.5633
441.97                   18.5548
442.24                   18.5463
442.50                   18.5379
442.77                   18.5294
443.04                   18.5210
443.30                   18.5125
443.57                   18.5041
443.83                   18.4956
444.10                   18.4871
444.36                   18.4787
444.63                   18.4702
444.89                   18.4618
445.16                   18.4533
445.42                   18.4448
445.69                   18.4364
445.95                   18.4279
446.22                   18.4195
446.48                   18.4110
446.75                   18.4025
447.02                   18.3941
447.28                   18.3856
447.55                   18.3771
447.81                   18.3686
448.08                   18.3602
448.34                   18.3517
448.61                   18.3432
448.87                   18.3347
449.14                   18.3263
449.40                   18.3178
449.67                   18.3093
449.93                   18.3008
450.20                   18.2923
450.46                   18.2838
450.73                   18.2753
451.00                   18.2668
451.26                   18.2583
451.53                   18.2498
451.79                   18.2413
452.06                   18.2328
452.32                   18.2243
452.59                   18.2158
452.85                   18.2073
453.12                   18.1988
453.38                   18.1903
453.65                   18.1818
453.91                   18.1733
454.18                   18.1648
454.44                   18.1563
454.71                   18.1478
454.98                   18.1393
455.24                   18.1308
455.51                   18.1223
455.77                   18.1138
456.04                   18.1053
456.30                   18.0969
456.57                   18.0884
456.83                   18.0799
457.10                   18.0714
457.36                   18.0629
457.63                   18.0544
457.89                   18.0459
458.16                   18.0374
458.42                   18.0289
458.69                   18.0204
458.96                   18.0119
459.22                   18.0034
459.49                   17.9950
459.75                   17.9865
460.02                   17.9780
460.28                   17.9695
460.55                   17.9610
460.81                   17.9525
461.08                   17.9441
461.34                   17.9356
461.61                   17.9271
461.87                   17.9186
462.14                   17.9102
462.40                   17.9017
462.67                   17.8932
462.94                   17.8847
463.20                   17.8763
463.47                   17.8678
463.73                   17.8593
464.00                   17.8508
464.26                   17.8424
464.53                   17.8339
464.79                   17.8254
465.06                   17.8169
465.32                   17.8085
465.59                   17.8000
465.85                   17.7915
466.12                   17.7831
466.38                   17.7746
466.65                   17.7661
466.92                   17.7577
467.18                   17.7492
467.45                   17.7408
467.71                   17.7323
467.98                   17.7238
468.24                   17.7154
468.51                   17.7070
468.77                   17.6985
469.04                   17.6901
469.30                   17.6816
469.57                   17.6732
469.83                   17.6647
470.10                   17.6563
470.37                   17.6479
470.63                   17.6395
470.90                   17.6311
471.16                   17.6226
471.43                   17.6142
471.69                   17.6058
471.96                   17.5974
472.22                   17.5890
472.49                   17.5805
472.75                   17.5721
473.02                   17.5637
473.28                   17.5553
473.55                   17.5469
473.81                   17.5384
474.08                   17.5300
474.35                   17.5216
474.61                   17.5132
474.88                   17.5047
475.14                   17.4963
475.41                   17.4879
475.67                   17.4794
475.94                   17.4710
476.20                   17.4626
476.47                   17.4541
476.73                   17.4457
477.00                   17.4372
477.26                   17.4288
477.53                   17.4204
477.79                   17.4119
478.06                   17.4035
478.33                   17.3950
478.59                   17.3865
478.86                   17.3781
479.12                   17.3696
479.39                   17.3612
479.65                   17.3527
479.92                   17.3442
480.18                   17.3357
480.45                   17.3272
480.71                   17.3187
480.98                   17.3102
481.24                   17.3017
481.51                   17.2932
481.77                   17.2847
482.04                   17.2762
482.31                   17.2677
482.57                   17.2592
482.84                   17.2507
483.10                   17.2422
483.37                   17.2336
483.63                   17.2251
483.90                   17.2166
484.16                   17.2081
484.43                   17.1996
484.69                   17.1911
484.96                   17.1826
485.22                   17.1741
485.49                   17.1656
485.75                   17.1571
486.02                   17.1486
486.29                   17.1401
486.55                   17.1316
486.82                   17.1231
487.08                   17.1146
487.35                   17.1061
487.61                   17.0976
487.88                   17.0892
488.14                   17.0807
488.41                   17.0722
488.67                   17.0637
488.94                   17.0552
489.20                   17.0467
489.47                   17.0382
489.73                   17.0297
490.00                   17.0212
490.27                   17.0128
490.53                   17.0043
490.80                   16.9958
491.06                   16.9873
491.33                   16.9789
491.59                   16.9704
491.86                   16.9619
492.12                   16.9535
492.39                   16.9450
492.65                   16.9365
492.92                   16.9281
493.18                   16.9196
493.45                   16.9111
493.71                   16.9026
493.98                   16.8942
494.25                   16.8857
494.51                   16.8772
494.78                   16.8688
495.04                   16.8603
495.31                   16.8518
495.57                   16.8434
495.84                   16.8349
496.10                   16.8264
496.37                   16.8179
496.63                   16.8095
496.90                   16.8010
497.16                   16.7925
497.43                   16.7841
497.70                   16.7756
497.96                   16.7671
498.23                   16.7587
498.49                   16.7502
498.76                   16.7417
499.02                   16.7333
499.29                   16.7248
499.55                   16.7164
499.82                   16.7079
500.08                   16.6994
500.35                   16.6910
500.61                   16.6825
500.88                   16.6741
501.14                   16.6656
501.41                   16.6572
501.68                   16.6487
501.94                   16.6403
502.21                   16.6318
502.47                   16.6233
502.74                   16.6149
503.00                   16.6064
503.27                   16.5980
503.53                   16.5895
503.80                   16.5811
504.06                   16.5726
504.33                   16.5642
504.59                   16.5557
504.86                   16.5473
505.12                   16.5388
505.39                   16.5304
505.66                   16.5219
505.92                   16.5135
506.19                   16.5050
506.45                   16.4965
506.72                   16.4881
506.98                   16.4796
507.25                   16.4712
