# sky background 0.3-1.0um
# BRIGHT optical sky - 100%ile conditions (day 14)
# AM=2.0
#
#derived from sky spectrum with constant slope to match assumed photometric background
#increasingly poor model at very bright sky (day14);  patched to near-IR background at 920nm
#
#1 March 2001 : Phil Puxley

#nm         phot/s/nm/arcsec^2/m^2
320.00                    0.0000
349.99                    0.0000
350.17                   22.3062
350.43                   22.2966
350.70                   22.2870
350.96                   22.2773
351.23                   22.2677
351.49                   22.2581
351.76                   22.2485
352.02                   22.2388
352.29                   22.2292
352.55                   22.2196
352.82                   22.2100
353.08                   22.2003
353.35                   22.1907
353.62                   22.1811
353.88                   22.1715
354.15                   22.1619
354.41                   22.1522
354.68                   22.1426
354.94                   22.1330
355.21                   22.1234
355.47                   22.1137
355.74                   22.1041
356.00                   22.0945
356.27                   22.0849
356.53                   22.0752
356.80                   22.0656
357.07                   22.0560
357.33                   22.0464
357.60                   22.0367
357.86                   22.0271
358.13                   22.0175
358.39                   22.0079
358.66                   21.9982
358.92                   21.9886
359.19                   21.9790
359.45                   21.9694
359.72                   21.9597
359.98                   21.9501
360.25                   21.9405
360.51                   21.9309
360.78                   21.9212
361.05                   21.9116
361.31                   21.9020
361.58                   21.8924
361.84                   21.8827
362.11                   21.8731
362.37                   21.8635
362.64                   21.8539
362.90                   21.8442
363.17                   21.8346
363.43                   21.8250
363.70                   21.8154
363.96                   21.8057
364.23                   21.7961
364.49                   21.7865
364.76                   21.7769
365.03                   21.7672
365.29                   21.7576
365.56                   21.7480
365.82                   21.7384
366.09                   21.7287
366.35                   21.7191
366.62                   21.7095
366.88                   21.6999
367.15                   21.6902
367.41                   21.6806
367.68                   21.6710
367.94                   21.6614
368.21                   21.6518
368.47                   21.6421
368.74                   21.6325
369.01                   21.6229
369.27                   21.6133
369.54                   21.6036
369.80                   21.5940
370.07                   21.5844
370.33                   21.5748
370.60                   21.5651
370.86                   21.5555
371.13                   21.5459
371.39                   21.5363
371.66                   21.5266
371.92                   21.5170
372.19                   21.5074
372.45                   21.4978
372.72                   21.4881
372.99                   21.4785
373.25                   21.4689
373.52                   21.4593
373.78                   21.4496
374.05                   21.4400
374.31                   21.4304
374.58                   21.4208
374.84                   21.4111
375.11                   21.4015
375.37                   21.3919
375.64                   21.3823
375.90                   21.3726
376.17                   21.3630
376.43                   21.3534
376.70                   21.3438
376.97                   21.3341
377.23                   21.3245
377.50                   21.3149
377.76                   21.3053
378.03                   21.2956
378.29                   21.2860
378.56                   21.2764
378.82                   21.2668
379.09                   21.2571
379.35                   21.2475
379.62                   21.2379
379.88                   21.2283
380.15                   21.2186
380.41                   21.2090
380.68                   21.1994
380.95                   21.1898
381.21                   21.1801
381.48                   21.1705
381.74                   21.1609
382.01                   21.1513
382.27                   21.1417
382.54                   21.1320
382.80                   21.1224
383.07                   21.1128
383.33                   21.1032
383.60                   21.0935
383.86                   21.0839
384.13                   21.0743
384.40                   21.0647
384.66                   21.0550
384.93                   21.0454
385.19                   21.0358
385.46                   21.0262
385.72                   21.0166
385.99                   21.0069
386.25                   20.9973
386.52                   20.9877
386.78                   20.9781
387.05                   20.9685
387.31                   20.9589
387.58                   20.9493
387.84                   20.9396
388.11                   20.9300
388.38                   20.9204
388.64                   20.9108
388.91                   20.9012
389.17                   20.8916
389.44                   20.8820
389.70                   20.8724
389.97                   20.8628
390.23                   20.8532
390.50                   20.8437
390.76                   20.8341
391.03                   20.8245
391.29                   20.8149
391.56                   20.8053
391.82                   20.7958
392.09                   20.7862
392.36                   20.7766
392.62                   20.7670
392.89                   20.7574
393.15                   20.7479
393.42                   20.7383
393.68                   20.7287
393.95                   20.7191
394.21                   20.7095
394.48                   20.7000
394.74                   20.6904
395.01                   20.6808
395.27                   20.6712
395.54                   20.6616
395.80                   20.6520
396.07                   20.6425
396.34                   20.6329
396.60                   20.6233
396.87                   20.6137
397.13                   20.6041
397.40                   20.5945
397.66                   20.5849
397.93                   20.5754
398.19                   20.5658
398.46                   20.5562
398.72                   20.5466
398.99                   20.5370
399.25                   20.5274
399.52                   20.5178
399.78                   20.5082
400.05                   20.4986
400.32                   20.4891
400.58                   20.4795
400.85                   20.4699
401.11                   20.4603
401.38                   20.4507
401.64                   20.4411
401.91                   20.4315
402.17                   20.4219
402.44                   20.4123
402.70                   20.4027
402.97                   20.3931
403.23                   20.3835
403.50                   20.3739
403.76                   20.3643
404.03                   20.3548
404.30                   20.3452
404.56                   20.3356
404.83                   20.3260
405.09                   20.3164
405.36                   20.3068
405.62                   20.2972
405.89                   20.2876
406.15                   20.2781
406.42                   20.2685
406.68                   20.2589
406.95                   20.2493
407.21                   20.2397
407.48                   20.2302
407.74                   20.2206
408.01                   20.2110
408.28                   20.2014
408.54                   20.1919
408.81                   20.1823
409.07                   20.1727
409.34                   20.1632
409.60                   20.1536
409.87                   20.1440
410.13                   20.1345
410.40                   20.1249
410.66                   20.1154
410.93                   20.1058
411.19                   20.0963
411.46                   20.0867
411.73                   20.0772
411.99                   20.0677
412.26                   20.0581
412.52                   20.0486
412.79                   20.0390
413.05                   20.0295
413.32                   20.0199
413.58                   20.0104
413.85                   20.0008
414.11                   19.9913
414.38                   19.9817
414.64                   19.9722
414.91                   19.9626
415.17                   19.9531
415.44                   19.9435
415.71                   19.9340
415.97                   19.9244
416.24                   19.9149
416.50                   19.9053
416.77                   19.8958
417.03                   19.8862
417.30                   19.8766
417.56                   19.8671
417.83                   19.8575
418.09                   19.8479
418.36                   19.8384
418.62                   19.8288
418.89                   19.8192
419.15                   19.8097
419.42                   19.8001
419.69                   19.7905
419.95                   19.7810
420.22                   19.7714
420.48                   19.7618
420.75                   19.7522
421.01                   19.7426
421.28                   19.7330
421.54                   19.7234
421.81                   19.7138
422.07                   19.7042
422.34                   19.6946
422.60                   19.6850
422.87                   19.6755
423.13                   19.6659
423.40                   19.6563
423.67                   19.6467
423.93                   19.6371
424.20                   19.6275
424.46                   19.6179
424.73                   19.6083
424.99                   19.5987
425.26                   19.5892
425.52                   19.5796
425.79                   19.5700
426.05                   19.5604
426.32                   19.5508
426.58                   19.5412
426.85                   19.5316
427.11                   19.5220
427.38                   19.5125
427.65                   19.5029
427.91                   19.4933
428.18                   19.4837
428.44                   19.4741
428.71                   19.4646
428.97                   19.4550
429.24                   19.4454
429.50                   19.4358
429.77                   19.4262
430.03                   19.4167
430.30                   19.4071
430.56                   19.3975
430.83                   19.3880
431.09                   19.3784
431.36                   19.3688
431.63                   19.3593
431.89                   19.3497
432.16                   19.3401
432.42                   19.3306
432.69                   19.3210
432.95                   19.3114
433.22                   19.3019
433.48                   19.2923
433.75                   19.2827
434.01                   19.2732
434.28                   19.2636
434.54                   19.2540
434.81                   19.2445
435.07                   19.2349
435.34                   19.2254
435.61                   19.2158
435.87                   19.2062
436.14                   19.1967
436.40                   19.1871
436.67                   19.1776
436.93                   19.1680
437.20                   19.1585
437.46                   19.1489
437.73                   19.1394
437.99                   19.1298
438.26                   19.1203
438.52                   19.1107
438.79                   19.1012
439.05                   19.0916
439.32                   19.0821
439.59                   19.0726
439.85                   19.0630
440.12                   19.0535
440.38                   19.0440
440.65                   19.0345
440.91                   19.0250
441.18                   19.0154
441.44                   19.0059
441.71                   18.9964
441.97                   18.9869
442.24                   18.9774
442.50                   18.9679
442.77                   18.9584
443.04                   18.9488
443.30                   18.9393
443.57                   18.9298
443.83                   18.9203
444.10                   18.9108
444.36                   18.9012
444.63                   18.8917
444.89                   18.8822
445.16                   18.8727
445.42                   18.8631
445.69                   18.8536
445.95                   18.8441
446.22                   18.8346
446.48                   18.8250
446.75                   18.8155
447.02                   18.8060
447.28                   18.7965
447.55                   18.7869
447.81                   18.7774
448.08                   18.7679
448.34                   18.7583
448.61                   18.7488
448.87                   18.7393
449.14                   18.7297
449.40                   18.7202
449.67                   18.7106
449.93                   18.7011
450.20                   18.6915
450.46                   18.6820
450.73                   18.6724
451.00                   18.6628
451.26                   18.6533
451.53                   18.6437
451.79                   18.6342
452.06                   18.6246
452.32                   18.6150
452.59                   18.6055
452.85                   18.5959
453.12                   18.5864
453.38                   18.5768
453.65                   18.5672
453.91                   18.5577
454.18                   18.5481
454.44                   18.5386
454.71                   18.5290
454.98                   18.5194
455.24                   18.5099
455.51                   18.5003
455.77                   18.4908
456.04                   18.4812
456.30                   18.4717
456.57                   18.4621
456.83                   18.4525
457.10                   18.4430
457.36                   18.4334
457.63                   18.4239
457.89                   18.4143
458.16                   18.4048
458.42                   18.3952
458.69                   18.3857
458.96                   18.3761
459.22                   18.3666
459.49                   18.3570
459.75                   18.3475
460.02                   18.3379
460.28                   18.3284
460.55                   18.3188
460.81                   18.3093
461.08                   18.2998
461.34                   18.2902
461.61                   18.2807
461.87                   18.2711
462.14                   18.2616
462.40                   18.2521
462.67                   18.2425
462.94                   18.2330
463.20                   18.2234
463.47                   18.2139
463.73                   18.2044
464.00                   18.1949
464.26                   18.1853
464.53                   18.1758
464.79                   18.1662
465.06                   18.1567
465.32                   18.1472
465.59                   18.1377
465.85                   18.1281
466.12                   18.1186
466.38                   18.1091
466.65                   18.0995
466.92                   18.0900
467.18                   18.0805
467.45                   18.0710
467.71                   18.0615
467.98                   18.0519
468.24                   18.0424
468.51                   18.0329
468.77                   18.0234
469.04                   18.0139
469.30                   18.0044
469.57                   17.9949
469.83                   17.9854
470.10                   17.9759
470.37                   17.9664
470.63                   17.9569
470.90                   17.9475
471.16                   17.9380
471.43                   17.9285
471.69                   17.9190
471.96                   17.9096
472.22                   17.9001
472.49                   17.8906
472.75                   17.8811
473.02                   17.8716
473.28                   17.8621
473.55                   17.8527
473.81                   17.8432
474.08                   17.8337
474.35                   17.8242
474.61                   17.8147
474.88                   17.8052
475.14                   17.7957
475.41                   17.7862
475.67                   17.7768
475.94                   17.7673
476.20                   17.7578
476.47                   17.7483
476.73                   17.7388
477.00                   17.7293
477.26                   17.7197
477.53                   17.7102
477.79                   17.7007
478.06                   17.6912
478.33                   17.6817
478.59                   17.6722
478.86                   17.6627
479.12                   17.6531
479.39                   17.6436
479.65                   17.6341
479.92                   17.6245
480.18                   17.6150
480.45                   17.6054
480.71                   17.5959
480.98                   17.5863
481.24                   17.5767
481.51                   17.5672
481.77                   17.5576
482.04                   17.5480
482.31                   17.5384
482.57                   17.5289
482.84                   17.5193
483.10                   17.5097
483.37                   17.5002
483.63                   17.4906
483.90                   17.4811
484.16                   17.4715
484.43                   17.4619
484.69                   17.4524
484.96                   17.4428
485.22                   17.4332
485.49                   17.4237
485.75                   17.4141
486.02                   17.4045
486.29                   17.3950
486.55                   17.3854
486.82                   17.3759
487.08                   17.3663
487.35                   17.3568
487.61                   17.3472
487.88                   17.3376
488.14                   17.3281
488.41                   17.3185
488.67                   17.3090
488.94                   17.2994
489.20                   17.2899
489.47                   17.2803
489.73                   17.2708
490.00                   17.2612
490.27                   17.2517
490.53                   17.2422
490.80                   17.2326
491.06                   17.2231
491.33                   17.2136
491.59                   17.2040
491.86                   17.1945
492.12                   17.1850
492.39                   17.1754
492.65                   17.1659
492.92                   17.1564
493.18                   17.1468
493.45                   17.1373
493.71                   17.1278
493.98                   17.1182
494.25                   17.1087
494.51                   17.0992
494.78                   17.0897
495.04                   17.0801
495.31                   17.0706
495.57                   17.0611
495.84                   17.0515
496.10                   17.0420
496.37                   17.0325
496.63                   17.0229
496.90                   17.0134
497.16                   17.0039
497.43                   16.9944
497.70                   16.9848
497.96                   16.9753
498.23                   16.9658
498.49                   16.9562
498.76                   16.9467
499.02                   16.9372
499.29                   16.9277
499.55                   16.9181
499.82                   16.9086
500.08                   16.8991
500.35                   16.8896
500.61                   16.8801
500.88                   16.8706
501.14                   16.8610
501.41                   16.8515
501.68                   16.8420
501.94                   16.8325
502.21                   16.8230
502.47                   16.8135
502.74                   16.8039
503.00                   16.7944
503.27                   16.7849
503.53                   16.7754
503.80                   16.7659
504.06                   16.7564
504.33                   16.7469
504.59                   16.7373
504.86                   16.7278
505.12                   16.7183
505.39                   16.7088
505.66                   16.6993
505.92                   16.6898
506.19                   16.6803
506.45                   16.6707
506.72                   16.6612
506.98                   16.6517
507.25                   16.6422
